DATE 2017:044:06:25:53 obsn 581 az 122 el 47 freq_MHz  1420.4000 Tsys 171.000 Tant 26.163 vlsr  -13.91 glat 60.829 glon 262.199 source Moon 
Fstart 1419.397 fstop 1421.403 spacing 0.009375 bw    2.400 fbw    2.000 MHz nfreq 256 nsam 5242880 npoint 214 integ     9 sigma    1.195 bsw 3
Spectrum      8 integration periods
 193.191  196.669  199.421  200.973  203.246  203.377  202.504  202.029  201.847  203.016  203.289  203.093  202.767  203.668  203.005  202.332  203.784  202.775  203.568  203.725  204.010  203.207  204.047  204.782  203.292  204.945  205.304  204.356  204.902  205.365  205.456  205.219  206.212  204.751  207.464  207.382  207.006  206.583  208.554  208.261  209.268  209.590  209.830  210.805  208.582  209.541  210.116  210.364  209.555  211.186  211.613  211.529  210.239  211.831  211.783  210.246  210.490  209.880  209.101  209.353  207.128  207.944  206.885  208.268  206.537  206.161  205.436  205.478  205.072  220.946  213.954  207.525  204.359  203.841  202.716  205.764  205.276  205.020  204.040  205.334  202.835  204.609  204.951  202.935  204.132  203.748  203.529  205.301  203.289  203.024  203.574  202.998  202.289  203.406  202.672  201.770  203.245  201.638  201.692  201.971  201.166  200.246  200.655  199.812  199.861  200.577  199.983  199.041  198.698  199.630  199.248  197.290  197.964  197.399  197.848  198.029  197.282  199.332  197.635  196.812  198.735  198.977  199.702  200.508  200.262  199.884  199.304  197.048  196.879  197.950  197.445  197.564  196.005  195.733  195.981  195.345  194.959  195.882  195.456  195.516  196.550  195.412  196.235  196.484  196.220  197.034  195.929  195.780  196.751  196.400  196.594  196.038  196.209  196.379  197.376  197.369  196.925  196.776  196.521  197.178  196.918  197.706  197.906  196.539  196.792  196.886  196.463  199.111  195.975  196.342  197.155  198.010  197.772  197.842  196.735  197.461  197.612  196.724  198.173  196.745  197.342  196.572  196.223  196.728  199.267  196.930  197.558  197.622  196.640  197.345  196.975  197.144  196.135  198.266  197.780  198.698  198.066  198.069  198.129  199.160  198.998  198.230  199.038  199.725  199.506  198.533  199.170  198.674  199.153  198.699  197.809  198.074  198.207  199.918 
DATE 2017:044:06:26:17 obsn 582 az 130 el 47 freq_MHz  1420.4000 Tsys 171.000 Tant 28.000 vlsr  -13.91 glat 60.830 glon 262.204 source Moon 
Fstart 1419.397 fstop 1421.403 spacing 0.009375 bw    2.400 fbw    2.000 MHz nfreq 256 nsam 5242880 npoint 214 integ    20 sigma    0.797 bsw 4
Spectrum     18 integration periods
  -0.299    0.192   -1.132   -0.512   -2.069   -2.800   -1.578   -0.620   -1.165   -0.668   -2.447   -2.113   -2.083   -2.273   -1.787   -2.123   -3.395   -2.931   -2.059   -2.038   -2.292   -1.921   -3.255   -1.687   -1.969   -3.209   -4.230   -3.708   -1.089   -3.682   -3.089   -2.276   -3.486   -4.414   -5.517   -3.515   -5.470   -3.985   -4.894   -4.671   -5.593   -6.028   -5.775   -7.706   -6.849   -6.830   -7.742   -7.353   -6.631   -8.305   -7.384   -9.745   -7.627   -8.597   -8.373   -7.070   -8.523   -8.410   -8.938   -7.191   -7.687   -7.506   -6.970   -5.934   -8.208   -6.312   -6.168   -6.149   -4.221   -2.414  -13.029   -6.619   -6.487   -7.424   -6.304   -7.062   -6.573   -5.637   -7.739   -7.351   -6.197   -5.855   -7.083   -5.350   -4.567   -5.244   -5.164   -5.673   -4.045   -3.746   -4.401   -2.715   -3.086   -4.139   -3.737   -2.159   -2.316   -1.283   -3.161   -3.210   -2.620   -0.165   -2.068   -1.922   -0.384   -0.577   -1.900    0.780    0.139    0.091   -0.382    1.344    1.271    0.750    0.871    1.092    1.174    0.636    3.123    2.720    3.488    3.980    2.783    1.068    3.921    3.974    1.862    3.802    2.044    2.913    1.768    1.614    1.827    1.913    2.205    3.332    2.423    0.744    1.523    3.162    0.507    1.381   -0.621    0.153    1.876   -0.114    1.645    1.341    1.105   -0.741   -1.175    1.320    1.701   -0.029    1.376    1.558    1.057    1.044    0.859   -0.417    1.145   -0.764    0.066    0.777    1.305    0.863    1.056   -0.631    2.399    0.212    0.886   -0.266   -0.657    0.453    1.266   -0.089    0.751    1.147   -0.697    1.102    0.133    0.135    2.235    0.520   -1.052   -0.401    0.132    1.174    2.248    0.687    1.052    1.460    1.122   -0.281    2.253    0.307    0.929    1.312    0.204    0.083    1.828    0.594    0.651    0.218    0.552    1.222    1.391    1.208   -0.108    0.412    1.246    2.442    1.471   -0.638 
DATE 2017:044:06:26:46 obsn 583 az 137 el 47 freq_MHz  1420.4000 Tsys 171.000 Tant 27.115 vlsr  -13.92 glat 60.830 glon 262.210 source Moon 
Fstart 1419.397 fstop 1421.403 spacing 0.009375 bw    2.400 fbw    2.000 MHz nfreq 256 nsam 5242880 npoint 214 integ    31 sigma    0.639 bsw 5
Spectrum     28 integration periods
   0.757    0.916   -0.173   -0.372   -0.875   -1.420    0.196   -0.197    0.204    0.848   -0.750   -0.628   -0.604   -0.857    0.046   -0.804   -1.498   -0.982    0.075   -0.298   -1.217   -0.193   -1.092   -0.031   -0.664   -2.150   -2.357   -2.301   -1.027   -1.335   -0.554   -0.523   -1.888   -1.849   -3.014   -1.542   -3.087   -2.816   -2.660   -3.011   -2.405   -3.582   -2.533   -3.961   -3.629   -3.832   -4.419   -3.452   -3.155   -4.912   -4.933   -5.464   -4.869   -4.794   -4.957   -3.726   -4.464   -4.692   -5.501   -3.459   -4.212   -4.028   -3.995   -3.155   -4.094   -2.530   -3.541   -4.369   -1.175    2.230   -6.155   -4.735   -3.542   -4.086   -3.100   -4.623   -3.149   -2.389   -3.773   -3.382   -3.144   -3.137   -4.066   -3.415   -2.689   -2.555   -2.492   -2.831   -1.766   -1.624   -2.080   -0.996   -1.413   -2.102   -1.327   -0.840   -1.106   -1.661   -1.321   -0.959   -1.095    0.914   -1.244   -1.477    0.036   -0.306   -0.799    1.008    0.413   -0.365    0.290    1.159    0.729    1.108    0.281    0.981    1.260    0.611    1.025    1.357    1.490    2.382    0.544   -0.131    3.053    2.935    0.674    2.278    1.002    2.748    1.997    0.905    1.619    1.615    1.905    1.880    1.433    0.693    1.155    1.816    0.419    1.602    0.126    1.111    1.201   -0.341    1.423    1.277    0.695   -0.658    0.066    1.868    0.677    1.104    1.561    2.734    1.179    0.662    0.652   -0.639    0.156    0.194    0.400    1.164    1.571    0.344    1.068    0.208    1.668   -0.157    0.967   -0.632   -0.219   -0.222    0.584    0.181    0.630    1.098    0.115    0.955    0.405    0.357    0.804    0.351   -0.312    0.405    0.216    1.883    2.155    0.630    0.875    1.724    1.394    0.345    0.962    0.728    0.374    1.183    0.466    0.634    1.323    0.807    1.003   -0.981    0.740   -0.386   -0.065    1.165    0.549    0.192    0.228    1.438   -0.062   -0.917 
DATE 2017:044:06:27:10 obsn 584 az 130 el 47 freq_MHz  1420.4000 Tsys 171.000 Tant 27.393 vlsr  -13.92 glat 60.831 glon 262.216 source Moon 
Fstart 1419.397 fstop 1421.403 spacing 0.009375 bw    2.400 fbw    2.000 MHz nfreq 256 nsam 5242880 npoint 214 integ    42 sigma    0.548 bsw 6
Spectrum     38 integration periods
   1.404    0.673    0.023   -0.338   -0.182   -0.781    0.364    0.274   -0.148    0.268   -0.686   -0.595   -0.264   -0.743   -0.226   -0.203   -1.013    0.287    0.442   -0.390   -0.979    0.120   -0.865    0.355   -0.458   -1.611   -1.241   -1.612   -1.129   -1.174   -0.257   -0.126   -1.674   -1.589   -2.170   -0.932   -2.565   -2.006   -2.054   -2.323   -1.974   -2.693   -2.204   -2.986   -3.134   -2.623   -3.666   -2.900   -3.051   -4.020   -3.495   -4.827   -3.673   -4.126   -4.526   -3.152   -3.456   -3.905   -4.162   -2.388   -3.227   -3.110   -3.833   -2.560   -3.253   -2.510   -2.855   -3.453   -0.940    2.554   -4.344   -4.405   -2.951   -2.820   -2.805   -3.454   -2.555   -1.922   -3.223   -2.866   -2.456   -2.459   -3.372   -2.496   -2.314   -1.692   -2.736   -1.985   -1.892   -1.559   -1.825   -0.633   -1.286   -1.086   -1.382   -0.827   -0.793   -1.274   -1.123   -0.363   -0.852    1.161   -0.524   -0.895    0.653   -0.181   -0.756    0.482    0.205   -0.838    0.382    1.236    0.516    1.250    0.675    0.643    0.998    0.468    0.687    0.766    0.963    1.620    0.399    0.358    3.068    2.581    0.561    1.348    0.995    1.790    1.820    0.964    1.042    1.091    1.528    1.427    1.085    0.802    0.476    1.141    0.403    1.074    0.338    1.148    0.802   -0.154    1.068    0.852    0.105    0.239    0.198    1.451    0.341    0.895    1.106    2.841    1.187    0.583    0.484   -0.236    0.261    0.380   -0.146    0.651    0.824    0.177    0.708   -0.241    1.449   -0.278    0.514   -0.403    0.425   -0.072    0.720    0.662    0.751    0.092   -0.227    0.628    0.122    0.179    0.307    0.367   -0.342    0.246   -0.510    1.409    1.607    0.437    0.277    0.895    1.686    0.497    0.521    0.384    0.270    1.240    0.681    0.475    0.556    0.850    0.901   -0.850    0.862   -1.219   -0.287    0.777    0.575    0.208    0.585    0.417   -0.382   -1.057 
DATE 2017:044:06:27:34 obsn 585 az 123 el 47 freq_MHz  1420.4000 Tsys 171.000 Tant 26.494 vlsr  -13.92 glat 60.831 glon 262.221 source Moon 
Fstart 1419.397 fstop 1421.403 spacing 0.009375 bw    2.400 fbw    2.000 MHz nfreq 256 nsam 5242880 npoint 214 integ    52 sigma    0.488 bsw 7
Spectrum     48 integration periods
   1.334    0.659    0.324   -0.190   -0.078   -0.174    0.584    0.575    0.410    0.460   -0.414    0.046    0.127    0.369   -0.036    0.484   -0.769    0.684    0.721    0.247   -0.094    0.473   -0.329    0.670    0.009   -0.939   -0.582   -0.785   -0.388   -0.556   -0.074    0.353   -1.153   -1.115   -1.284   -0.562   -1.596   -0.915   -1.550   -1.258   -1.029   -1.948   -1.574   -1.899   -2.166   -2.037   -2.397   -1.840   -2.009   -2.920   -2.806   -3.719   -2.797   -3.221   -3.547   -1.962   -2.482   -2.830   -2.977   -1.548   -2.841   -2.456   -2.795   -1.245   -2.863   -1.588   -1.924   -2.416   -0.265    2.135   -5.845   -3.212   -2.044   -2.133   -2.095   -2.324   -1.831   -0.795   -2.560   -1.902   -1.707   -1.937   -2.676   -2.308   -1.706   -0.834   -1.725   -1.459   -1.848   -1.369   -1.530   -0.271   -0.679   -0.335   -0.836    0.182   -0.322   -0.591   -0.294    0.295   -0.113    1.024   -0.184   -0.476    0.506    0.140   -0.512    0.687    0.593   -0.400    0.814    1.122    0.540    1.462    1.176    0.847    1.416    0.686    1.063    0.912    1.249    1.705    0.498    0.949    2.863    2.776    0.748    1.445    1.474    1.835    1.938    1.323    0.832    0.983    1.747    1.397    1.121    0.709    0.513    1.139    0.206    0.811    0.233    1.185    0.644   -0.162    0.692    0.508   -0.086    0.198    0.078    1.507    0.509    0.519    0.797    2.939    1.094    0.602    0.342   -0.115    0.263    0.764    0.010    0.568    0.548    0.170    0.704    0.111    1.206   -0.037    0.597   -0.473    0.079    0.095    0.582    0.066    0.386   -0.235    0.142    0.806    0.148    0.024    0.255    0.235   -0.135    0.311   -0.396    1.197    1.387    0.960    0.355    0.962    1.136    0.389    0.737    0.364    0.243    1.355    0.447    0.385    0.400    0.521    0.410   -0.751    0.776   -1.011    0.163    1.057    0.465    0.256    0.279    0.505   -0.137   -1.078 
DATE 2017:044:06:27:58 obsn 586 az 130 el 47 freq_MHz  1420.4000 Tsys 171.000 Tant 28.025 vlsr  -13.92 glat 60.832 glon 262.226 source Moon 
Fstart 1419.397 fstop 1421.403 spacing 0.009375 bw    2.400 fbw    2.000 MHz nfreq 256 nsam 5242880 npoint 214 integ    63 sigma    0.444 bsw 8
Spectrum     58 integration periods
   1.218    0.778    0.954    0.242   -0.113    0.150    0.277    0.908    0.557    0.563   -0.406    0.168    0.500    0.387   -0.057    0.781   -0.444    0.674    0.824    0.540    0.190    0.728   -0.135    0.848   -0.268   -0.458   -0.193    0.015   -0.032   -0.385    0.477    0.507   -0.719   -1.081   -0.967   -0.316   -1.429   -0.732   -1.326   -0.942   -0.609   -1.085   -0.945   -1.091   -1.809   -1.487   -1.651   -1.268   -1.570   -2.265   -1.941   -2.619   -2.040   -2.258   -2.670   -1.621   -1.636   -2.266   -2.128   -1.170   -2.402   -1.861   -2.143   -0.299   -2.292   -1.402   -1.546   -1.488    0.259    2.706   -5.526   -2.634   -1.416   -1.325   -1.688   -1.566   -1.209   -0.395   -2.073   -1.205   -1.232   -1.192   -2.219   -1.759   -1.219   -0.185   -0.836   -1.012   -0.868   -0.861   -1.088   -0.070   -0.329    0.112   -0.353    0.287   -0.159   -0.146    0.205    0.407    0.398    1.076   -0.159   -0.208    0.843    0.435   -0.416    0.527    0.787   -0.185    1.131    1.348    0.517    1.135    1.299    1.300    1.547    0.868    1.214    1.213    1.480    2.041    1.142    1.122    2.772    2.529    0.861    1.178    1.376    1.958    2.024    1.142    0.735    1.008    2.300    1.301    1.067    0.657    0.446    1.268    0.233    0.502    0.269    1.232    0.486   -0.082    0.709    0.473    0.093    0.140    0.026    1.092    0.484    0.767    0.657    2.642    1.136    0.577    0.342   -0.185    0.338    0.583    0.078    0.566    0.736    0.188    0.394    0.281    1.129    0.074    0.770   -0.431    0.493    0.296    0.710   -0.164    0.404   -0.195    0.312    0.653    0.241   -0.103    0.271    0.450    0.126    0.053   -0.113    0.914    1.316    1.097    0.290    0.785    0.773    0.163    0.557    0.618   -0.144    1.131    0.344    0.333    0.328    0.718    0.529   -0.285    0.730   -1.001    0.098    0.703    0.184   -0.024    0.361    0.667    0.151   -0.512 
DATE 2017:044:06:28:30 obsn 587 az 138 el 48 freq_MHz  1420.4000 Tsys 171.000 Tant 27.232 vlsr  -13.92 glat 60.832 glon 262.233 source Moon 
Fstart 1419.397 fstop 1421.403 spacing 0.009375 bw    2.400 fbw    2.000 MHz nfreq 256 nsam 5242880 npoint 214 integ    74 sigma    0.410 bsw 9
Spectrum     68 integration periods
   1.335    0.775    1.163    0.267    0.184    0.458    0.544    0.986    0.824    0.786   -0.179    0.478    0.596    0.385    0.209    0.817   -0.416    0.956    0.915    0.761    0.370    0.866    0.150    0.766   -0.172   -0.104    0.180    0.113   -0.226   -0.319    0.760    0.414   -0.544   -0.933   -0.739   -0.343   -1.210   -0.502   -1.032   -0.763   -0.578   -0.665   -0.861   -0.979   -1.449   -1.301   -1.396   -1.005   -1.322   -1.703   -1.451   -2.374   -1.854   -1.773   -2.208   -1.398   -1.448   -1.959   -1.863   -1.062   -1.848   -1.460   -1.797    0.221   -2.126   -1.231   -1.464   -1.220    0.231    3.362   -5.365   -2.462   -1.187   -0.933   -1.132   -1.204   -0.923   -0.663   -1.650   -0.776   -1.085   -0.669   -2.087   -1.327   -1.028   -0.031   -0.206   -0.668   -0.804   -0.655   -0.644    0.014   -0.214    0.108   -0.101    0.065   -0.238    0.097    0.315    0.326    0.458    0.915   -0.180    0.014    0.865    0.615   -0.350    0.627    0.671   -0.063    1.378    1.368    0.939    1.197    1.295    1.463    1.418    0.619    1.017    0.907    0.955    1.643    0.916    1.135    2.524    2.509    0.949    1.092    1.398    1.849    1.821    1.321    0.951    0.885    2.061    0.850    1.026    0.888    0.407    1.276    0.141    0.612    0.535    1.467    0.648    0.126    0.596    0.359   -0.082    0.102   -0.094    0.813    0.379    0.771    0.716    2.441    0.831    0.527    0.495   -0.163    0.387    0.771    0.187    0.594    0.736    0.028    0.398    0.314    0.932    0.046    0.734   -0.270    0.762    0.097    0.415   -0.058    0.526   -0.131    0.414    0.344    0.330    0.057    0.463    0.555    0.244    0.216   -0.211    0.718    1.354    1.065    0.383    0.827    0.694    0.084    0.390    0.334   -0.103    0.900    0.149    0.496    0.300    0.472    0.485   -0.172    0.608   -1.027   -0.110    0.417    0.055    0.050   -0.144    0.545   -0.054   -0.456 
DATE 2017:044:06:28:54 obsn 588 az 130 el 48 freq_MHz  1420.4000 Tsys 171.000 Tant 28.321 vlsr  -13.92 glat 60.833 glon 262.238 source Moon 
Fstart 1419.397 fstop 1421.403 spacing 0.009375 bw    2.400 fbw    2.000 MHz nfreq 256 nsam 5242880 npoint 214 integ    85 sigma    0.383 bsw 10
Spectrum     78 integration periods
   1.457    0.812    1.182    0.520    0.412    0.857    0.802    0.803    0.907    0.953    0.265    0.723    0.802    0.756    0.435    0.881   -0.331    1.138    1.078    0.872    0.288    1.236    0.393    0.837   -0.011    0.243    0.389    0.011   -0.309   -0.039    0.768    0.510   -0.357   -0.702   -0.337   -0.046   -0.687   -0.270   -0.445   -0.379   -0.262   -0.696   -0.439   -0.614   -0.907   -0.741   -0.949   -0.626   -0.932   -1.026   -1.078   -1.906   -1.311   -1.186   -1.889   -1.025   -0.954   -1.265   -1.368   -0.534   -1.074   -1.048   -1.527    0.597   -1.362   -0.850   -1.135   -0.802    0.647    4.097   -4.195   -2.141   -0.774   -0.517   -0.843   -0.868   -0.472   -0.300   -1.340   -0.566   -0.753   -0.545   -1.837   -1.277   -1.022    0.097    0.154   -0.452   -0.750   -0.440   -0.303    0.240   -0.061    0.327    0.006    0.036   -0.358   -0.010    0.198    0.163    0.707    0.997    0.039   -0.097    1.079    0.390   -0.290    0.408    0.405   -0.208    1.353    1.151    0.796    1.060    1.205    1.071    0.944    0.561    0.348    0.378    0.305    1.182    0.299    0.734    2.262    2.229    0.562    0.823    1.449    1.575    1.896    1.032    0.772    0.728    1.819    0.497    0.756    0.575    0.478    0.890    0.158    0.517    0.445    1.233    0.524    0.316    0.631    0.491    0.023   -0.026   -0.060    0.727    0.525    0.619    0.531    2.058    0.554    0.233    0.352   -0.220    0.030    0.751    0.321    0.343    0.624   -0.287    0.188    0.471    0.684   -0.313    0.620   -0.156    0.548   -0.044    0.325   -0.039    0.518   -0.186    0.216    0.356    0.153    0.276    0.130    0.467    0.267    0.122   -0.508    0.414    1.081    0.901    0.181    0.448    0.603    0.054    0.110    0.193   -0.338    0.769   -0.053    0.316    0.067    0.218    0.257   -0.436    0.651   -1.539   -0.594    0.448   -0.156   -0.008   -0.089    0.220   -0.418   -0.514 
DATE 2017:044:06:29:18 obsn 589 az 123 el 48 freq_MHz  1420.4000 Tsys 171.000 Tant 27.987 vlsr  -13.93 glat 60.833 glon 262.243 source Moon 
Fstart 1419.397 fstop 1421.403 spacing 0.009375 bw    2.400 fbw    2.000 MHz nfreq 256 nsam 5242880 npoint 214 integ    96 sigma    0.360 bsw 11
Spectrum     88 integration periods
   1.533    0.880    1.149    0.443    0.841    1.069    0.827    0.837    1.052    0.937    0.599    0.823    1.067    0.782    0.667    0.867   -0.215    1.159    0.959    0.989    0.442    1.204    0.250    0.916    0.139    0.366    0.254    0.002   -0.077   -0.141    0.937    0.619   -0.050   -0.391   -0.139    0.177   -0.292   -0.175   -0.496   -0.119   -0.067   -0.455   -0.226   -0.556   -0.750   -0.677   -1.064   -0.600   -0.813   -0.961   -0.769   -1.753   -0.970   -1.170   -1.888   -0.861   -0.723   -1.055   -1.119   -0.496   -1.111   -1.021   -1.532    0.552   -1.151   -0.996   -1.087   -0.776    0.509    3.414   -3.202   -1.869   -0.729   -0.420   -0.629   -0.694   -0.429   -0.368   -1.250   -0.458   -0.707   -0.521   -1.606   -1.246   -0.873    0.026    0.251   -0.336   -0.540   -0.225   -0.444    0.256   -0.042    0.431   -0.085   -0.008   -0.132    0.161    0.207    0.335    0.757    1.007    0.131    0.008    0.916    0.518   -0.123    0.415    0.407   -0.093    1.377    1.266    0.831    0.814    1.062    1.143    1.025    0.761    0.505    0.500    0.733    0.998    0.500    0.883    2.300    2.171    0.673    0.966    1.493    1.506    1.693    0.742    0.870    0.655    1.510    0.586    0.694    0.675    0.527    0.901    0.177    0.339    0.545    1.042    0.680    0.349    0.538    0.553   -0.012    0.268    0.202    0.616    0.545    0.507    0.427    1.604    0.471    0.181    0.286   -0.010    0.028    0.701    0.176    0.575    0.468    0.001    0.113    0.614    0.544   -0.150    0.459   -0.082    0.537   -0.184    0.245    0.183    0.347   -0.303    0.256    0.163    0.297    0.437    0.237    0.392    0.248    0.145   -0.337    0.344    1.052    0.616   -0.044    0.470    0.454    0.229   -0.079    0.145   -0.168    0.684    0.115    0.359    0.203    0.105    0.192   -0.615    0.587   -1.506   -0.595    0.212   -0.099    0.049   -0.055    0.001   -0.550   -0.452 
DATE 2017:044:06:29:42 obsn 590 az 131 el 48 freq_MHz  1420.4000 Tsys 171.000 Tant 26.820 vlsr  -13.93 glat 60.833 glon 262.246 source Moon 
Fstart 1419.397 fstop 1421.403 spacing 0.009375 bw    2.400 fbw    2.000 MHz nfreq 256 nsam 5242880 npoint 214 integ   107 sigma    0.341 bsw 12
Spectrum     98 integration periods
 190.381  195.119  197.223  199.114  199.443  199.819  199.655  200.627  199.759  199.753  199.237  199.644  198.901  199.116  198.879  199.157  199.649  198.635  199.107  199.410  199.716  199.374  199.417  199.504  200.062  199.865  199.865  199.637  200.978  200.178  200.282  200.454  200.400  200.223  200.641  200.480  200.119  200.244  200.526  200.482  200.632  201.058  200.416  200.157  199.933  199.950  200.223  199.530  199.957  199.930  200.296  198.874  199.136  198.624  200.068  199.317  199.048  198.661  197.685  197.427  197.406  197.096  197.536  199.138  196.291  196.474  195.660  197.096  197.069  211.317  200.232  198.740  195.680  195.042  194.832  195.789  195.183  194.868  195.114  195.283  195.014  195.027  195.376  195.539  196.195  195.562  195.901  196.464  196.766  197.472  197.188  197.177  197.251  197.633  197.058  197.121  198.505  198.544  197.522  197.678  197.683  197.707  197.874  197.986  197.920  199.023  197.691  198.271  197.876  198.687  198.460  197.117  197.823  198.185  198.620  198.198  198.314  199.485  200.402  200.039  201.405  202.148  202.574  203.150  203.177  201.019  200.598  198.874  198.852  199.217  197.768  198.901  197.696  197.828  197.834  197.534  197.255  196.938  196.675  197.546  196.519  196.574  196.258  196.647  196.633  196.330  196.065  196.515  197.058  196.699  196.321  196.570  197.625  196.826  197.461  197.609  197.720  197.394  197.198  197.337  198.386  197.252  197.647  197.563  197.743  198.010  197.857  198.020  197.578  198.016  197.780  198.031  197.521  198.719  197.745  198.131  197.847  197.694  197.827  197.791  197.757  197.605  198.674  198.011  197.589  197.488  197.761  197.950  197.688  197.741  198.205  197.876  197.776  198.364  199.268  198.921  199.161  198.832  198.836  199.240  199.502  199.138  199.444  200.371  199.027  200.752  200.686  199.491  199.639  199.347  199.606  200.508  200.279  199.555 
DATE 2017:044:06:29:55 obsn 591 az 131 el 48 freq_MHz  1420.4000 Tsys 171.000 Tant 28.412 vlsr  -13.93 glat 60.834 glon 262.251 source Moon 
Fstart 1419.397 fstop 1421.403 spacing 0.009375 bw    2.400 fbw    2.000 MHz nfreq 256 nsam 5242880 npoint 214 integ   118 sigma    0.325 bsw 12
Spectrum    108 integration periods
   1.503    1.238    1.638    0.671    1.094    1.271    0.945    1.098    1.358    0.964    0.705    0.777    1.049    1.233    1.018    0.836    0.153    1.308    1.207    1.280    0.682    1.167    0.541    1.187    0.402    0.503    0.268    0.387    0.258    0.130    1.321    0.747    0.277    0.174    0.017    0.421    0.145    0.228   -0.202    0.063    0.285   -0.316    0.139   -0.284   -0.442   -0.316   -0.742   -0.236   -0.825   -0.673   -0.480   -1.237   -0.679   -0.587   -1.383   -0.601   -0.201   -0.752   -0.784   -0.572   -0.681   -0.774   -1.074    0.667   -0.549   -1.084   -0.628   -0.558    0.734    3.112   -3.446   -1.727   -0.333   -0.414   -0.382   -0.283   -0.200   -0.107   -0.622   -0.543   -0.523   -0.068   -1.100   -1.037   -0.497    0.337    0.413   -0.325   -0.447   -0.005   -0.247    0.342    0.074    0.353   -0.113    0.175   -0.187    0.196    0.141   -0.001    0.688    0.547   -0.008   -0.091    0.539    0.428   -0.165    0.467    0.267   -0.301    1.039    1.294    0.761    0.629    0.514    1.005    0.802    0.490    0.296    0.302    0.536    1.139    0.803    1.026    2.238    1.918    0.746    1.066    1.407    1.298    1.617    0.661    0.668    0.355    1.159    0.575    0.578    0.612    0.323    0.433   -0.056   -0.046    0.246    0.743    0.499    0.220    0.258    0.204   -0.265    0.214   -0.064    0.400   -0.015    0.338    0.125    0.865    0.223   -0.197   -0.223   -0.334   -0.334    0.376   -0.023    0.017    0.013   -0.346    0.002    0.153    0.164   -0.399    0.351   -0.508    0.318   -0.369   -0.065   -0.322    0.243   -0.329   -0.034   -0.270    0.009    0.043   -0.115   -0.059    0.055   -0.102   -0.599    0.115    0.711    0.480   -0.426    0.208    0.174   -0.138   -0.276    0.005   -0.762    0.278   -0.067    0.295    0.002   -0.216   -0.281   -0.692    0.135   -1.463   -0.441   -0.010   -0.312   -0.196   -0.764   -0.336   -0.664   -0.832 
DATE 2017:044:06:30:19 obsn 592 az 138 el 48 freq_MHz  1420.4000 Tsys 171.000 Tant 27.487 vlsr  -13.93 glat 60.834 glon 262.256 source Moon 
Fstart 1419.397 fstop 1421.403 spacing 0.009375 bw    2.400 fbw    2.000 MHz nfreq 256 nsam 5242880 npoint 214 integ   129 sigma    0.311 bsw 13
Spectrum    118 integration periods
   1.439    1.328    1.788    0.483    1.150    1.164    0.979    1.076    1.603    1.151    0.873    0.932    1.112    1.366    1.119    0.874    0.276    1.338    1.320    1.456    0.877    1.380    0.713    1.295    0.467    0.659    0.361    0.551    0.125    0.279    1.133    0.951    0.514    0.100    0.171    0.693    0.243    0.181   -0.020    0.156    0.324   -0.329    0.386   -0.080   -0.193   -0.129   -0.649    0.058   -0.469   -0.364   -0.323   -0.958   -0.320   -0.204   -1.138   -0.201    0.027   -0.494   -0.557   -0.305   -0.411   -0.518   -1.083    0.922   -0.242   -0.815   -0.519   -0.509    1.027    3.545   -2.475   -1.575   -0.077   -0.293   -0.080   -0.281   -0.053    0.134   -0.329   -0.298   -0.290    0.175   -0.784   -0.752   -0.591    0.414    0.478   -0.189   -0.405   -0.070   -0.167    0.426    0.030    0.392    0.014    0.296   -0.203    0.088    0.214    0.060    0.648    0.476    0.058    0.095    0.570    0.363   -0.064    0.398    0.228   -0.471    0.953    1.099    0.807    0.531    0.355    0.922    0.610    0.383   -0.131   -0.042    0.129    0.582    0.322    0.806    2.247    1.924    0.747    1.023    1.318    1.132    1.406    0.601    0.589    0.168    0.963    0.391    0.452    0.466    0.455    0.078   -0.011   -0.040    0.267    0.597    0.341    0.173    0.098    0.141   -0.418    0.204   -0.211    0.320   -0.235    0.281    0.038    0.694    0.153   -0.248   -0.254   -0.273   -0.561    0.331    0.115   -0.142   -0.096   -0.568    0.006    0.212    0.071   -0.583    0.235   -0.567    0.196   -0.416    0.024   -0.291    0.212   -0.343    0.120   -0.260    0.035   -0.012   -0.238   -0.072    0.139   -0.287   -0.540    0.151    0.669    0.460   -0.582    0.098   -0.072   -0.181   -0.426    0.059   -0.738    0.216   -0.199    0.242    0.137   -0.130   -0.263   -0.796    0.107   -1.861   -0.742   -0.061   -0.337   -0.376   -0.827   -0.528   -0.800   -0.898 
DATE 2017:044:06:30:42 obsn 593 az 131 el 48 freq_MHz  1420.4000 Tsys 171.000 Tant 27.468 vlsr  -13.93 glat 60.835 glon 262.261 source Moon 
Fstart 1419.397 fstop 1421.403 spacing 0.009375 bw    2.400 fbw    2.000 MHz nfreq 256 nsam 5242880 npoint 214 integ   140 sigma    0.299 bsw 14
Spectrum    128 integration periods
   1.355    1.287    1.739    0.568    1.232    1.285    1.054    0.852    1.585    1.039    0.848    0.913    1.033    1.407    1.205    0.792    0.293    1.325    1.291    1.336    0.851    1.269    0.775    1.169    0.435    0.634    0.281    0.542   -0.078    0.241    1.013    0.747    0.401    0.108    0.162    0.673    0.185    0.220   -0.042    0.058    0.167   -0.397    0.441   -0.066   -0.098   -0.049   -0.581    0.164   -0.445   -0.347   -0.305   -0.888   -0.176   -0.216   -1.249   -0.241    0.120   -0.510   -0.411   -0.048   -0.432   -0.487   -0.966    0.781   -0.157   -0.990   -0.493   -0.359    0.837    3.413   -1.998   -1.708    0.037   -0.217   -0.067   -0.287   -0.078    0.207   -0.362   -0.395   -0.348    0.071   -0.600   -0.576   -0.790    0.402    0.441   -0.215   -0.453   -0.107   -0.179    0.299   -0.089    0.284    0.162    0.308   -0.446   -0.149    0.178   -0.020    0.633    0.453    0.075    0.078    0.429    0.241   -0.034    0.401    0.187   -0.554    0.809    1.187    0.746    0.564    0.548    0.843    0.567    0.227   -0.280   -0.084   -0.026    0.518    0.240    0.825    2.089    1.832    0.651    0.978    1.315    1.001    1.370    0.534    0.512    0.151    1.045    0.278    0.347    0.325    0.405   -0.061   -0.050   -0.118    0.220    0.539    0.206   -0.034    0.151    0.038   -0.372   -0.041   -0.287    0.339   -0.339    0.327    0.034    0.666   -0.020   -0.252   -0.179   -0.235   -0.629    0.304    0.070   -0.172   -0.129   -0.620   -0.158    0.120    0.075   -0.635    0.241   -0.825    0.130   -0.601    0.075   -0.345    0.018   -0.236    0.007   -0.277   -0.211    0.124   -0.241   -0.048    0.106   -0.441   -0.604   -0.007    0.588    0.385   -0.618    0.098   -0.132   -0.298   -0.472   -0.073   -0.601    0.100   -0.179    0.122    0.137   -0.127   -0.321   -0.919    0.041   -1.774   -0.679   -0.126   -0.398   -0.404   -0.706   -0.519   -0.872   -0.890 
DATE 2017:044:06:31:14 obsn 594 az 124 el 48 freq_MHz  1420.4000 Tsys 171.000 Tant 27.035 vlsr  -13.93 glat 60.835 glon 262.268 source Moon 
Fstart 1419.397 fstop 1421.403 spacing 0.009375 bw    2.400 fbw    2.000 MHz nfreq 256 nsam 5242880 npoint 214 integ   151 sigma    0.288 bsw 15
Spectrum    138 integration periods
   1.318    1.407    1.710    0.670    1.228    1.280    1.039    1.082    1.637    1.167    1.000    1.092    1.094    1.606    1.278    0.939    0.551    1.380    1.256    1.440    1.049    1.506    0.905    1.243    0.407    0.817    0.350    0.737    0.086    0.404    1.104    0.818    0.560    0.295    0.223    0.846    0.274    0.364    0.149    0.330    0.273   -0.228    0.672    0.053   -0.006    0.019   -0.343    0.265   -0.251   -0.128   -0.152   -0.768    0.059    0.044   -0.992   -0.131    0.274   -0.378   -0.248    0.232   -0.253   -0.289   -0.655    0.976   -0.067   -0.812   -0.357   -0.190    0.730    3.563   -2.219   -1.340    0.218   -0.078    0.035   -0.017    0.189    0.363   -0.146   -0.298   -0.166    0.253   -0.300   -0.374   -0.447    0.485    0.516   -0.050   -0.408   -0.053   -0.081    0.382    0.178    0.486    0.192    0.404   -0.343   -0.074    0.347    0.082    0.633    0.460    0.122    0.112    0.537    0.286    0.064    0.398    0.263   -0.381    0.925    1.126    0.774    0.589    0.699    0.909    0.561    0.392   -0.059    0.057    0.200    0.701    0.545    1.009    2.136    1.885    0.616    0.873    1.351    1.064    1.542    0.587    0.569    0.278    1.152    0.345    0.476    0.378    0.210   -0.075   -0.174   -0.042    0.214    0.666    0.314   -0.115   -0.018    0.181   -0.335   -0.030   -0.371    0.185   -0.471    0.396    0.083    0.711   -0.007   -0.229   -0.179   -0.219   -0.581    0.104    0.030   -0.076   -0.173   -0.652   -0.288    0.208   -0.059   -0.596    0.184   -0.858    0.144   -0.595   -0.091   -0.240   -0.014   -0.169    0.052   -0.249   -0.207    0.126    0.055   -0.074   -0.030   -0.468   -0.542    0.013    0.548    0.359   -0.499    0.170   -0.228   -0.392   -0.451   -0.065   -0.529   -0.019   -0.262    0.069    0.104   -0.146   -0.292   -0.842   -0.040   -1.577   -0.503   -0.257   -0.272   -0.368   -0.699   -0.520   -0.677   -0.771 
DATE 2017:044:06:31:38 obsn 595 az 131 el 48 freq_MHz  1420.4000 Tsys 171.000 Tant 28.201 vlsr  -13.94 glat 60.836 glon 262.273 source Moon 
Fstart 1419.397 fstop 1421.403 spacing 0.009375 bw    2.400 fbw    2.000 MHz nfreq 256 nsam 5242880 npoint 214 integ   162 sigma    0.278 bsw 16
Spectrum    148 integration periods
   1.341    1.414    1.667    0.715    1.209    1.285    1.072    1.151    1.510    1.209    1.040    1.061    1.231    1.542    1.352    1.030    0.636    1.380    1.218    1.462    1.188    1.744    1.077    1.376    0.408    0.670    0.645    0.781    0.079    0.463    1.105    0.877    0.686    0.246    0.197    0.790    0.364    0.484    0.173    0.476    0.337   -0.296    0.675    0.058    0.079    0.077   -0.330    0.338   -0.286   -0.212   -0.139   -0.737    0.210    0.287   -1.049   -0.038    0.269   -0.280   -0.141    0.308   -0.233   -0.254   -0.510    1.003    0.115   -0.559   -0.363   -0.096    0.888    3.527   -2.583   -1.279    0.341    0.151    0.069    0.134    0.123    0.349   -0.112   -0.149   -0.203    0.093   -0.307   -0.283   -0.348    0.394    0.513    0.136   -0.371    0.106   -0.086    0.380    0.228    0.608    0.170    0.304   -0.324   -0.119    0.314   -0.004    0.532    0.443    0.081    0.100    0.643    0.231    0.129    0.358    0.183   -0.442    0.837    1.069    0.822    0.587    0.728    0.897    0.573    0.438   -0.123    0.046    0.186    0.646    0.529    0.953    2.100    1.822    0.691    0.878    1.443    1.258    1.528    0.580    0.631    0.282    1.038    0.322    0.513    0.432    0.181   -0.170   -0.141    0.037    0.190    0.783    0.196   -0.065   -0.073    0.224   -0.345    0.015   -0.220    0.198   -0.489    0.397   -0.040    0.468   -0.032   -0.363   -0.078   -0.149   -0.505    0.041   -0.022    0.025   -0.187   -0.722   -0.292   -0.000   -0.160   -0.570    0.201   -0.827    0.122   -0.610   -0.130   -0.214    0.061   -0.113    0.055   -0.109   -0.207    0.019   -0.025   -0.075   -0.024   -0.368   -0.428    0.108    0.676    0.326   -0.499    0.095   -0.147   -0.450   -0.338   -0.064   -0.493    0.005   -0.286    0.018    0.153   -0.305   -0.357   -0.867   -0.144   -1.628   -0.367   -0.312   -0.396   -0.372   -0.618   -0.673   -0.786   -0.762 
DATE 2017:044:06:32:02 obsn 596 az 139 el 48 freq_MHz  1420.4000 Tsys 171.000 Tant 26.968 vlsr  -13.94 glat 60.836 glon 262.279 source Moon 
Fstart 1419.397 fstop 1421.403 spacing 0.009375 bw    2.400 fbw    2.000 MHz nfreq 256 nsam 5242880 npoint 214 integ   173 sigma    0.269 bsw 17
Spectrum    158 integration periods
   1.544    1.475    1.751    0.766    1.335    1.391    1.187    1.297    1.546    1.330    1.071    1.161    1.389    1.604    1.505    1.005    0.606    1.385    1.343    1.571    1.252    1.822    1.161    1.523    0.468    0.798    0.710    0.934    0.081    0.646    1.179    1.003    0.889    0.377    0.150    0.815    0.425    0.613    0.204    0.596    0.319   -0.235    0.799   -0.059    0.072    0.204   -0.077    0.447   -0.152   -0.072   -0.016   -0.634    0.311    0.285   -1.007    0.119    0.439   -0.181   -0.109    0.410   -0.224   -0.169   -0.369    1.037    0.210   -0.513   -0.319    0.011    0.927    3.760   -2.305   -1.089    0.296    0.169    0.160    0.141    0.281    0.384    0.021    0.088   -0.102    0.224   -0.260   -0.157   -0.270    0.492    0.526    0.262   -0.311    0.155   -0.042    0.406    0.408    0.661    0.242    0.358   -0.239   -0.162    0.301    0.002    0.472    0.477    0.033    0.164    0.591    0.133   -0.023    0.331    0.182   -0.439    0.809    0.983    0.825    0.611    0.760    0.820    0.601    0.289   -0.311   -0.119   -0.010    0.421    0.429    0.926    1.998    1.710    0.694    0.917    1.444    1.176    1.429    0.550    0.633    0.303    0.989    0.214    0.444    0.456    0.265   -0.223   -0.101    0.155    0.218    0.691    0.219   -0.113    0.220    0.338   -0.355   -0.017   -0.305    0.127   -0.354    0.390   -0.094    0.406    0.010   -0.292   -0.085   -0.159   -0.619    0.027   -0.057   -0.038   -0.190   -0.781   -0.315    0.017   -0.087   -0.697    0.197   -0.739   -0.073   -0.744   -0.121   -0.234    0.083   -0.036    0.098   -0.045   -0.257   -0.010   -0.153   -0.112    0.144   -0.241   -0.323    0.183    0.630    0.358   -0.487    0.050   -0.118   -0.444   -0.464   -0.044   -0.370   -0.056   -0.196   -0.090    0.204   -0.253   -0.442   -0.934   -0.215   -1.549   -0.411   -0.298   -0.333   -0.172   -0.520   -0.584   -0.783   -0.749 
DATE 2017:044:06:32:26 obsn 597 az 131 el 48 freq_MHz  1420.4000 Tsys 171.000 Tant 27.164 vlsr  -13.94 glat 60.836 glon 262.284 source Moon 
Fstart 1419.397 fstop 1421.403 spacing 0.009375 bw    2.400 fbw    2.000 MHz nfreq 256 nsam 5242880 npoint 214 integ   184 sigma    0.261 bsw 18
Spectrum    168 integration periods
   1.529    1.483    1.918    0.676    1.372    1.293    1.214    1.205    1.570    1.422    1.114    1.291    1.374    1.629    1.467    1.079    0.637    1.431    1.345    1.555    1.254    1.854    1.325    1.610    0.553    0.882    0.730    0.928    0.251    0.613    1.189    1.063    0.878    0.497    0.261    0.845    0.423    0.547    0.413    0.681    0.433   -0.093    0.825   -0.047    0.167    0.107    0.032    0.524    0.005   -0.182    0.072   -0.546    0.314    0.266   -0.938    0.144    0.415   -0.080   -0.099    0.400   -0.099    0.092   -0.357    0.982    0.293   -0.422   -0.178    0.127    1.000    4.141   -2.225   -1.106    0.311    0.296    0.114    0.143    0.270    0.328   -0.116    0.051    0.007    0.162   -0.233    0.033   -0.354    0.454    0.624    0.264   -0.325    0.156   -0.013    0.420    0.435    0.692    0.093    0.293   -0.295   -0.234    0.286    0.048    0.395    0.378    0.080    0.177    0.406    0.096   -0.037    0.350    0.169   -0.440    0.739    0.914    0.803    0.511    0.683    0.684    0.472    0.227   -0.564   -0.258   -0.260    0.244    0.287    0.880    1.882    1.620    0.726    0.804    1.307    1.206    1.288    0.350    0.549    0.240    0.891    0.189    0.478    0.421    0.264   -0.304   -0.098    0.174    0.204    0.623    0.100   -0.087    0.173    0.232   -0.463   -0.140   -0.320    0.100   -0.502    0.363   -0.145    0.378   -0.005   -0.200   -0.140   -0.257   -0.587   -0.001   -0.132   -0.184   -0.289   -0.829   -0.321    0.027   -0.097   -0.744    0.246   -0.723   -0.002   -0.901   -0.126   -0.255    0.028   -0.091    0.105   -0.040   -0.268    0.049   -0.302   -0.081    0.136   -0.188   -0.330    0.100    0.609    0.320   -0.612   -0.097   -0.054   -0.453   -0.504   -0.045   -0.380   -0.116   -0.272   -0.052    0.185   -0.154   -0.520   -0.999   -0.251   -1.583   -0.455   -0.288   -0.429   -0.103   -0.567   -0.645   -0.855   -0.751 
DATE 2017:044:06:32:50 obsn 598 az 124 el 48 freq_MHz  1420.4000 Tsys 171.000 Tant 26.670 vlsr  -13.94 glat 60.837 glon 262.289 source Moon 
Fstart 1419.397 fstop 1421.403 spacing 0.009375 bw    2.400 fbw    2.000 MHz nfreq 256 nsam 5242880 npoint 214 integ   194 sigma    0.253 bsw 19
Spectrum    178 integration periods
   1.425    1.476    1.950    0.753    1.476    1.305    1.340    1.091    1.543    1.406    1.241    1.365    1.390    1.602    1.448    1.156    0.790    1.416    1.285    1.555    1.258    1.836    1.305    1.599    0.585    0.970    0.812    0.940    0.508    0.631    1.168    1.012    0.924    0.580    0.412    0.860    0.416    0.646    0.383    0.652    0.385   -0.049    0.899    0.065    0.231    0.154    0.048    0.588   -0.009   -0.105    0.083   -0.580    0.326    0.301   -0.898    0.271    0.411   -0.002   -0.075    0.431   -0.030    0.121   -0.316    1.113    0.306   -0.360   -0.138    0.131    1.027    4.045   -2.305   -0.978    0.333    0.215    0.094    0.187    0.406    0.249   -0.163   -0.098   -0.025    0.246   -0.219   -0.014   -0.318    0.389    0.701    0.200   -0.319    0.236   -0.001    0.420    0.490    0.671    0.160    0.155   -0.093   -0.246    0.246   -0.005    0.435    0.353    0.152    0.257    0.388    0.126   -0.013    0.442    0.151   -0.346    0.740    0.831    0.753    0.457    0.653    0.607    0.494    0.258   -0.577   -0.251   -0.248    0.210    0.409    0.922    1.958    1.524    0.597    0.775    1.298    1.181    1.179    0.291    0.467    0.167    0.786    0.226    0.533    0.329    0.317   -0.250   -0.240    0.207    0.287    0.591    0.148   -0.168    0.152    0.249   -0.423   -0.090   -0.358    0.100   -0.534    0.287   -0.172    0.258    0.054   -0.253   -0.157   -0.200   -0.604   -0.015   -0.133   -0.226   -0.297   -0.753   -0.203   -0.061   -0.114   -0.668    0.251   -0.634    0.012   -0.918   -0.039   -0.201   -0.061   -0.286    0.058   -0.076   -0.307    0.007   -0.381   -0.093    0.157   -0.103   -0.399   -0.199    0.536    0.299   -0.602   -0.128   -0.144   -0.521   -0.484   -0.024   -0.551   -0.133   -0.426   -0.181    0.074   -0.156   -0.589   -1.060   -0.295   -1.529   -0.451   -0.293   -0.503   -0.261   -0.549   -0.716   -0.760   -0.783 
DATE 2017:044:06:33:14 obsn 599 az 132 el 48 freq_MHz  1420.4000 Tsys 171.000 Tant 27.302 vlsr  -13.94 glat 60.837 glon 262.294 source Moon 
Fstart 1419.397 fstop 1421.403 spacing 0.009375 bw    2.400 fbw    2.000 MHz nfreq 256 nsam 5242880 npoint 214 integ   205 sigma    0.246 bsw 20
Spectrum    188 integration periods
   1.428    1.549    1.850    0.819    1.458    1.340    1.444    1.148    1.504    1.416    1.250    1.507    1.275    1.629    1.422    1.181    0.851    1.370    1.311    1.438    1.319    1.885    1.434    1.578    0.577    0.971    0.884    0.965    0.673    0.689    1.215    1.012    0.916    0.593    0.425    0.870    0.447    0.653    0.490    0.669    0.383   -0.030    1.016    0.173    0.327    0.266    0.192    0.762    0.105    0.030    0.070   -0.540    0.300    0.424   -0.670    0.312    0.554    0.115   -0.017    0.405   -0.001    0.204   -0.151    1.357    0.332   -0.372   -0.090    0.184    0.993    4.065   -2.370   -0.967    0.408    0.296    0.091    0.332    0.465    0.204   -0.111    0.005   -0.018    0.244   -0.154    0.009   -0.190    0.387    0.580    0.153   -0.106    0.335    0.111    0.394    0.358    0.613    0.144    0.225   -0.052   -0.184    0.197    0.022    0.467    0.316    0.165    0.273    0.293    0.178   -0.201    0.398    0.144   -0.303    0.764    0.838    0.740    0.389    0.722    0.687    0.457    0.282   -0.393   -0.150   -0.254    0.413    0.551    0.984    1.932    1.438    0.676    0.758    1.319    1.112    1.197    0.331    0.428    0.219    0.766    0.182    0.523    0.161    0.302   -0.235   -0.315    0.162    0.312    0.439    0.160   -0.237    0.118    0.231   -0.445   -0.154   -0.388   -0.077   -0.499    0.168   -0.215    0.219   -0.003   -0.254   -0.220   -0.191   -0.496   -0.177   -0.149   -0.263   -0.323   -0.804   -0.249   -0.044   -0.216   -0.676    0.136   -0.664   -0.020   -0.805   -0.058   -0.231   -0.114   -0.451    0.068   -0.207   -0.334   -0.066   -0.436   -0.093    0.060   -0.113   -0.381   -0.306    0.506    0.232   -0.528   -0.195   -0.232   -0.612   -0.470   -0.087   -0.611   -0.233   -0.583   -0.118   -0.055   -0.133   -0.572   -1.082   -0.340   -1.362   -0.393   -0.363   -0.605   -0.241   -0.510   -0.798   -0.778   -0.822 
DATE 2017:044:06:33:38 obsn 600 az 139 el 48 freq_MHz  1420.4000 Tsys 171.000 Tant 27.665 vlsr  -13.94 glat 60.838 glon 262.299 source Moon 
Fstart 1419.397 fstop 1421.403 spacing 0.009375 bw    2.400 fbw    2.000 MHz nfreq 256 nsam 5242880 npoint 214 integ   216 sigma    0.240 bsw 21
Spectrum    198 integration periods
   1.393    1.580    1.837    0.782    1.451    1.332    1.464    1.117    1.435    1.384    1.190    1.465    1.148    1.557    1.335    1.093    0.745    1.254    1.270    1.313    1.230    1.803    1.333    1.522    0.505    0.988    0.890    1.041    0.670    0.684    1.204    0.966    0.878    0.586    0.430    0.832    0.296    0.612    0.451    0.633    0.367   -0.040    0.863    0.110    0.304    0.208    0.130    0.702    0.071   -0.031   -0.012   -0.576    0.185    0.391   -0.798    0.230    0.438    0.091    0.006    0.399   -0.130    0.096   -0.261    1.231    0.264   -0.487   -0.125    0.016    0.856    4.264   -2.137   -1.093    0.287    0.274    0.069    0.194    0.375    0.086   -0.123   -0.067    0.013    0.163   -0.263   -0.027   -0.323    0.290    0.526    0.154   -0.208    0.223    0.046    0.304    0.226    0.470    0.039    0.091   -0.116   -0.313    0.155   -0.014    0.388    0.233    0.054    0.204    0.165    0.070   -0.212    0.331    0.071   -0.440    0.641    0.818    0.625    0.275    0.618    0.595    0.438    0.252   -0.417   -0.253   -0.440    0.325    0.403    0.960    1.747    1.391    0.562    0.651    1.140    0.909    1.045    0.126    0.230    0.163    0.612    0.017    0.407    0.071    0.291   -0.419   -0.266    0.177    0.211    0.378    0.066   -0.159    0.094    0.171   -0.413   -0.224   -0.353   -0.030   -0.489    0.128   -0.214    0.186   -0.170   -0.289   -0.237   -0.190   -0.599   -0.239   -0.193   -0.223   -0.363   -0.863   -0.354   -0.063   -0.208   -0.632    0.091   -0.746   -0.143   -0.919   -0.148   -0.311   -0.191   -0.470   -0.058   -0.305   -0.375   -0.102   -0.548   -0.258    0.008   -0.183   -0.471   -0.290    0.445    0.287   -0.592   -0.197   -0.475   -0.645   -0.588   -0.145   -0.622   -0.300   -0.625   -0.196   -0.111   -0.177   -0.537   -1.174   -0.386   -1.306   -0.401   -0.452   -0.732   -0.364   -0.598   -0.850   -0.870   -0.877 
DATE 2017:044:06:34:02 obsn 601 az 132 el 48 freq_MHz  1420.4000 Tsys 171.000 Tant 27.719 vlsr  -13.94 glat 60.838 glon 262.302 source Moon 
Fstart 1419.397 fstop 1421.403 spacing 0.009375 bw    2.400 fbw    2.000 MHz nfreq 256 nsam 5242880 npoint 214 integ   227 sigma    0.234 bsw 22
Spectrum    208 integration periods
 190.310  195.002  197.331  199.292  199.685  199.926  199.776  200.474  199.722  199.449  199.157  199.522  198.895  198.939  198.870  198.995  199.506  198.568  198.955  199.055  199.299  199.147  199.252  199.255  199.908  199.760  199.735  199.693  201.034  199.967  200.370  199.818  200.058  200.090  200.284  200.292  200.003  200.351  200.050  200.016  200.224  200.736  199.931  199.805  199.830  199.603  199.421  199.177  199.124  199.274  199.821  198.537  198.653  198.078  199.297  198.733  198.529  198.138  197.528  196.991  196.810  196.434  197.135  198.409  195.890  195.801  195.505  196.813  196.705  210.085  200.467  197.962  195.156  194.473  194.515  195.480  195.050  194.315  194.571  194.621  194.440  194.655  194.927  195.154  195.778  195.353  195.762  196.229  196.579  197.351  197.073  196.857  197.289  197.370  196.973  196.971  198.189  198.391  197.014  197.510  197.639  197.529  197.643  197.735  197.554  198.715  197.923  198.160  197.694  198.379  197.976  197.582  197.794  198.197  198.490  198.225  198.510  199.178  200.469  200.203  201.587  202.301  202.924  203.214  203.260  201.240  200.579  199.223  198.826  199.182  198.052  198.945  197.728  197.892  197.967  197.547  197.434  196.883  196.545  197.645  196.507  196.345  196.203  196.562  196.533  196.426  196.384  196.551  197.077  196.603  196.557  196.695  197.685  196.847  197.589  197.537  197.536  197.407  197.366  197.288  198.365  197.402  197.472  197.556  197.753  198.157  197.890  197.890  197.713  198.164  197.779  197.921  197.714  198.618  197.717  197.764  197.723  197.721  197.502  197.606  197.547  197.515  198.665  197.897  197.641  197.624  197.881  197.832  197.753  197.913  198.235  197.979  198.027  198.418  199.261  198.932  199.026  198.894  198.981  199.033  199.406  199.188  199.517  200.369  199.067  201.025  201.084  199.563  199.507  199.570  199.548  200.484  200.357  199.558 
DATE 2017:044:06:34:15 obsn 602 az 132 el 48 freq_MHz  1420.4000 Tsys 171.000 Tant 27.950 vlsr  -13.95 glat 60.838 glon 262.307 source Moon 
Fstart 1419.397 fstop 1421.403 spacing 0.009375 bw    2.400 fbw    2.000 MHz nfreq 256 nsam 5242880 npoint 214 integ   238 sigma    0.229 bsw 22
Spectrum    218 integration periods
   1.432    1.606    1.825    0.752    1.485    1.300    1.417    1.000    1.476    1.507    1.200    1.638    1.184    1.554    1.343    1.238    0.743    1.400    1.416    1.315    1.149    1.782    1.422    1.614    0.666    1.026    0.916    1.235    0.606    0.827    1.180    1.307    0.868    0.779    0.586    0.899    0.352    0.606    0.565    0.667    0.438    0.052    0.954    0.293    0.240    0.369    0.279    0.776    0.097    0.090   -0.050   -0.475    0.230    0.374   -0.692    0.352    0.447    0.141   -0.019    0.420   -0.041    0.125   -0.380    1.144    0.397   -0.209    0.022    0.137    0.912    4.727   -1.326   -0.905    0.299    0.412    0.186    0.224    0.331    0.254    0.021    0.115    0.095    0.392   -0.069    0.100   -0.274    0.541    0.529    0.242   -0.178    0.254    0.129    0.420    0.329    0.365    0.168    0.228   -0.197   -0.277    0.301    0.063    0.393    0.179    0.075    0.193    0.256    0.002   -0.341    0.302    0.084   -0.466    0.620    0.660    0.506    0.129    0.469    0.483    0.374    0.098   -0.611   -0.494   -0.602    0.279    0.134    0.680    1.579    1.418    0.481    0.729    1.076    0.915    1.037    0.075    0.234    0.111    0.497   -0.051    0.335    0.189    0.417   -0.530   -0.162    0.336    0.054    0.367    0.213    0.002    0.214    0.246   -0.398   -0.196   -0.316   -0.080   -0.487    0.046   -0.162    0.238   -0.264   -0.309   -0.331   -0.336   -0.817   -0.351   -0.195   -0.388   -0.413   -0.845   -0.334   -0.093   -0.309   -0.798   -0.163   -0.706   -0.160   -0.972   -0.244   -0.380   -0.113   -0.357   -0.025   -0.200   -0.251    0.092   -0.603   -0.152    0.095   -0.153   -0.377   -0.252    0.445    0.233   -0.554   -0.227   -0.520   -0.530   -0.567   -0.147   -0.559   -0.252   -0.473   -0.143   -0.139   -0.075   -0.614   -1.197   -0.327   -1.374   -0.515   -0.601   -0.840   -0.402   -0.460   -0.860   -0.933   -0.891 
DATE 2017:044:06:34:39 obsn 603 az 124 el 48 freq_MHz  1420.4000 Tsys 171.000 Tant 31.104 vlsr  -13.95 glat 60.839 glon 262.312 source Moon 
Fstart 1419.397 fstop 1421.403 spacing 0.009375 bw    2.400 fbw    2.000 MHz nfreq 256 nsam 5242880 npoint 214 integ   249 sigma    0.224 bsw 23
Spectrum    228 integration periods
   1.454    1.553    1.735    0.874    1.578    1.258    1.404    0.997    1.495    1.466    1.156    1.638    1.096    1.578    1.323    1.259    0.784    1.390    1.403    1.316    1.232    1.781    1.391    1.653    0.694    1.030    0.966    1.335    0.686    0.899    1.282    1.243    0.951    0.750    0.567    0.933    0.419    0.633    0.561    0.689    0.487    0.203    0.956    0.318    0.281    0.410    0.282    0.819    0.151    0.225    0.108   -0.374    0.368    0.424   -0.518    0.438    0.576    0.217    0.158    0.456   -0.046    0.162   -0.260    1.309    0.524   -0.064    0.092    0.255    0.991    4.714   -1.814   -0.759    0.375    0.504    0.225    0.399    0.413    0.412    0.109    0.240    0.161    0.475    0.094    0.198   -0.096    0.627    0.689    0.362   -0.085    0.391    0.242    0.478    0.419    0.494    0.269    0.316   -0.106   -0.191    0.334    0.170    0.447    0.285    0.040    0.219    0.277    0.145   -0.272    0.377    0.102   -0.395    0.588    0.685    0.562    0.090    0.516    0.479    0.400    0.275   -0.465   -0.269   -0.344    0.450    0.264    0.790    1.603    1.406    0.551    0.725    1.032    0.897    1.054    0.098    0.189    0.186    0.588   -0.050    0.360    0.272    0.271   -0.459   -0.152    0.287    0.114    0.310    0.154   -0.043    0.121    0.224   -0.396   -0.111   -0.287   -0.115   -0.448   -0.047   -0.095    0.171   -0.358   -0.343   -0.302   -0.479   -0.705   -0.418   -0.185   -0.460   -0.436   -0.771   -0.334   -0.063   -0.372   -0.744   -0.227   -0.697   -0.187   -0.885   -0.309   -0.407   -0.219   -0.378   -0.018   -0.241   -0.277    0.027   -0.482   -0.189    0.001   -0.158   -0.437   -0.320    0.424    0.267   -0.467   -0.277   -0.571   -0.524   -0.510   -0.270   -0.596   -0.283   -0.552   -0.131   -0.089   -0.119   -0.622   -1.203   -0.468   -1.300   -0.451   -0.640   -0.939   -0.483   -0.459   -0.891   -0.940   -0.948 
DATE 2017:044:06:35:19 obsn 604 az 132 el 49 freq_MHz  1420.4000 Tsys 171.000 Tant 30.247 vlsr  -13.95 glat 60.839 glon 262.321 source Moon 
Fstart 1419.397 fstop 1421.403 spacing 0.009375 bw    2.400 fbw    2.000 MHz nfreq 256 nsam 5242880 npoint 214 integ   260 sigma    0.219 bsw 24
Spectrum    238 integration periods
   1.396    1.497    1.733    0.954    1.581    1.236    1.382    1.060    1.472    1.487    1.248    1.643    1.045    1.587    1.261    1.177    0.751    1.295    1.330    1.297    1.236    1.745    1.303    1.580    0.694    0.951    0.965    1.319    0.613    0.886    1.286    1.367    0.971    0.780    0.554    0.931    0.468    0.720    0.678    0.703    0.536    0.307    0.989    0.455    0.432    0.506    0.305    0.875    0.191    0.319    0.161   -0.298    0.398    0.456   -0.361    0.548    0.703    0.398    0.243    0.475    0.034    0.230   -0.138    1.467    0.569    0.068    0.262    0.316    1.130    4.600   -1.460   -0.590    0.505    0.723    0.400    0.512    0.571    0.601    0.301    0.450    0.333    0.586    0.252    0.313    0.026    0.758    0.794    0.495    0.048    0.576    0.374    0.606    0.474    0.611    0.467    0.469    0.164   -0.022    0.562    0.381    0.646    0.573    0.228    0.449    0.489    0.327   -0.054    0.523    0.340   -0.196    0.765    0.952    0.738    0.364    0.766    0.683    0.638    0.440   -0.196   -0.048   -0.085    0.688    0.452    0.902    1.774    1.612    0.837    0.907    1.298    1.182    1.304    0.329    0.496    0.495    0.849    0.345    0.799    0.703    0.704   -0.011    0.313    0.858    0.656    0.910    0.774    0.645    0.829    0.890    0.298    0.615    0.425    0.608    0.313    0.724    0.650    0.980    0.463    0.480    0.394    0.258    0.056    0.357    0.549    0.325    0.282   -0.027    0.410    0.625    0.367   -0.014    0.503    0.106    0.409   -0.221    0.391    0.257    0.442    0.362    0.714    0.422    0.390    0.621    0.060    0.271    0.455    0.321   -0.031    0.027    0.814    0.626   -0.150    0.040   -0.301   -0.361   -0.288   -0.145   -0.493   -0.135   -0.488   -0.027   -0.036   -0.036   -0.623   -1.162   -0.393   -1.134   -0.282   -0.669   -0.924   -0.436   -0.522   -0.882   -0.966   -0.927 
DATE 2017:044:06:35:42 obsn 605 az 140 el 49 freq_MHz  1420.4000 Tsys 171.000 Tant 27.412 vlsr  -13.95 glat 60.840 glon 262.326 source Moon 
Fstart 1419.397 fstop 1421.403 spacing 0.009375 bw    2.400 fbw    2.000 MHz nfreq 256 nsam 5242880 npoint 214 integ   271 sigma    0.215 bsw 25
Spectrum    248 integration periods
   1.338    1.576    1.749    1.005    1.568    1.136    1.320    1.072    1.488    1.491    1.164    1.582    0.999    1.633    1.158    1.147    0.699    1.275    1.339    1.273    1.189    1.680    1.251    1.562    0.730    1.013    0.976    1.256    0.626    0.897    1.335    1.464    1.027    0.887    0.666    0.956    0.394    0.672    0.707    0.622    0.589    0.257    1.032    0.488    0.556    0.466    0.345    0.856    0.218    0.309    0.178   -0.215    0.385    0.433   -0.272    0.549    0.741    0.399    0.325    0.524    0.099    0.239   -0.198    1.389    0.562    0.158    0.295    0.407    1.150    4.660   -1.348   -0.555    0.580    0.700    0.402    0.559    0.637    0.615    0.434    0.548    0.448    0.629    0.306    0.448    0.130    0.837    0.774    0.520    0.063    0.619    0.446    0.669    0.533    0.652    0.579    0.519    0.237    0.047    0.598    0.480    0.745    0.629    0.394    0.567    0.625    0.379    0.042    0.613    0.371   -0.107    0.811    0.898    0.743    0.407    0.717    0.606    0.578    0.419   -0.209   -0.114   -0.255    0.606    0.395    0.830    1.833    1.606    0.921    0.875    1.266    1.166    1.310    0.293    0.463    0.552    0.820    0.360    0.911    0.798    0.674    0.063    0.437    0.900    0.778    1.016    0.952    0.689    1.053    1.025    0.448    0.737    0.588    0.694    0.521    0.906    0.748    1.068    0.634    0.588    0.374    0.362    0.175    0.442    0.575    0.421    0.439    0.187    0.629    0.727    0.506    0.219    0.656    0.268    0.604   -0.030    0.625    0.457    0.596    0.585    0.833    0.575    0.485    0.698    0.207    0.417    0.610    0.431    0.105    0.126    0.875    0.681   -0.136    0.052   -0.339   -0.328   -0.314   -0.087   -0.491   -0.086   -0.526   -0.114    0.054   -0.022   -0.624   -1.167   -0.430   -1.308   -0.497   -0.709   -0.998   -0.449   -0.588   -0.982   -0.941   -0.978 
DATE 2017:044:06:36:06 obsn 606 az 132 el 49 freq_MHz  1420.4000 Tsys 171.000 Tant 29.010 vlsr  -13.95 glat 60.840 glon 262.331 source Moon 
Fstart 1419.397 fstop 1421.403 spacing 0.009375 bw    2.400 fbw    2.000 MHz nfreq 256 nsam 5242880 npoint 214 integ   282 sigma    0.210 bsw 26
Spectrum    258 integration periods
   1.258    1.511    1.796    1.028    1.621    1.097    1.277    1.036    1.468    1.418    1.134    1.568    1.035    1.617    1.098    1.088    0.696    1.300    1.299    1.231    1.180    1.602    1.335    1.622    0.695    1.043    0.891    1.256    0.592    0.809    1.402    1.538    0.908    0.873    0.671    0.919    0.347    0.656    0.657    0.627    0.631    0.215    1.013    0.469    0.483    0.505    0.308    0.821    0.197    0.238    0.118   -0.206    0.320    0.374   -0.336    0.499    0.744    0.355    0.277    0.447    0.113    0.144   -0.325    1.260    0.550    0.178    0.292    0.441    1.140    4.550   -1.206   -0.600    0.529    0.642    0.424    0.534    0.654    0.608    0.368    0.569    0.411    0.550    0.247    0.406    0.081    0.841    0.744    0.468    0.017    0.560    0.406    0.588    0.474    0.585    0.507    0.484    0.161   -0.088    0.558    0.565    0.622    0.605    0.375    0.528    0.522    0.309   -0.041    0.550    0.371   -0.164    0.652    0.754    0.716    0.332    0.743    0.464    0.495    0.297   -0.300   -0.146   -0.411    0.424    0.220    0.744    1.753    1.482    0.823    0.867    1.175    1.127    1.343    0.259    0.343    0.428    0.734    0.296    0.764    0.769    0.579   -0.015    0.391    0.830    0.717    0.848    0.872    0.670    1.005    0.944    0.336    0.578    0.482    0.630    0.413    0.816    0.615    0.860    0.483    0.579    0.240    0.308    0.081    0.377    0.475    0.303    0.365    0.140    0.440    0.548    0.346    0.172    0.573    0.171    0.533   -0.102    0.579    0.382    0.510    0.543    0.767    0.565    0.418    0.660    0.120    0.397    0.663    0.425    0.121    0.104    0.859    0.681   -0.199    0.046   -0.293   -0.305   -0.339   -0.147   -0.456   -0.062   -0.450   -0.087    0.048    0.020   -0.665   -1.198   -0.455   -1.317   -0.538   -0.696   -0.986   -0.439   -0.566   -1.032   -0.989   -1.021 
DATE 2017:044:06:36:30 obsn 607 az 125 el 49 freq_MHz  1420.4000 Tsys 171.000 Tant 26.770 vlsr  -13.95 glat 60.841 glon 262.336 source Moon 
Fstart 1419.397 fstop 1421.403 spacing 0.009375 bw    2.400 fbw    2.000 MHz nfreq 256 nsam 5242880 npoint 214 integ   293 sigma    0.206 bsw 27
Spectrum    268 integration periods
   1.294    1.494    1.772    1.037    1.570    1.088    1.277    1.064    1.439    1.417    1.271    1.562    1.026    1.604    1.155    1.033    0.763    1.371    1.342    1.275    1.186    1.674    1.367    1.613    0.700    1.047    0.869    1.301    0.607    0.820    1.397    1.567    0.959    0.890    0.707    0.921    0.405    0.729    0.689    0.638    0.618    0.273    1.009    0.433    0.493    0.540    0.382    0.855    0.264    0.280    0.101   -0.210    0.312    0.413   -0.320    0.507    0.719    0.367    0.266    0.505    0.164    0.135   -0.277    1.280    0.529    0.216    0.316    0.453    1.080    4.481   -1.290   -0.538    0.508    0.711    0.548    0.585    0.776    0.604    0.408    0.598    0.460    0.585    0.253    0.399    0.129    0.846    0.734    0.576    0.111    0.586    0.477    0.652    0.507    0.652    0.511    0.565    0.299   -0.079    0.512    0.567    0.607    0.524    0.333    0.506    0.450    0.339    0.033    0.519    0.395   -0.105    0.693    0.739    0.713    0.333    0.728    0.485    0.513    0.279   -0.207   -0.139   -0.330    0.476    0.315    0.804    1.771    1.531    0.844    0.852    1.157    1.172    1.303    0.386    0.374    0.507    0.772    0.368    0.741    0.777    0.601    0.090    0.438    0.773    0.720    0.832    0.930    0.657    1.023    0.935    0.329    0.573    0.533    0.604    0.454    0.853    0.620    0.827    0.488    0.591    0.223    0.265    0.078    0.365    0.449    0.335    0.341    0.129    0.390    0.527    0.300    0.183    0.555    0.120    0.537   -0.081    0.553    0.457    0.490    0.538    0.751    0.587    0.461    0.570    0.136    0.394    0.711    0.434    0.178    0.077    0.894    0.715   -0.129    0.048   -0.221   -0.262   -0.251   -0.005   -0.335   -0.058   -0.444   -0.029    0.124    0.061   -0.637   -1.092   -0.481   -1.206   -0.512   -0.696   -0.919   -0.434   -0.593   -1.059   -0.973   -0.978 
DATE 2017:044:06:36:54 obsn 608 az 133 el 49 freq_MHz  1420.4000 Tsys 171.000 Tant 26.993 vlsr  -13.96 glat 60.841 glon 262.341 source Moon 
Fstart 1419.397 fstop 1421.403 spacing 0.009375 bw    2.400 fbw    2.000 MHz nfreq 256 nsam 5242880 npoint 214 integ   304 sigma    0.203 bsw 28
Spectrum    278 integration periods
   1.276    1.453    1.695    1.050    1.552    1.085    1.344    1.092    1.465    1.458    1.257    1.530    0.990    1.571    1.177    0.999    0.859    1.320    1.322    1.249    1.139    1.558    1.324    1.578    0.664    1.014    0.818    1.315    0.626    0.777    1.350    1.519    0.905    0.883    0.694    0.893    0.421    0.724    0.662    0.522    0.594    0.358    1.037    0.446    0.495    0.550    0.381    0.861    0.263    0.320    0.148   -0.174    0.340    0.397   -0.254    0.583    0.746    0.379    0.258    0.504    0.249    0.189   -0.238    1.287    0.544    0.287    0.403    0.446    1.072    4.404   -1.328   -0.570    0.521    0.746    0.527    0.617    0.711    0.584    0.464    0.539    0.506    0.517    0.197    0.359    0.222    0.796    0.695    0.527    0.069    0.516    0.477    0.676    0.529    0.572    0.476    0.508    0.357   -0.064    0.530    0.483    0.619    0.499    0.313    0.461    0.434    0.365    0.074    0.554    0.386   -0.133    0.697    0.699    0.755    0.363    0.690    0.456    0.486    0.271   -0.233   -0.089   -0.311    0.564    0.363    0.847    1.794    1.475    0.872    0.845    1.153    1.134    1.184    0.370    0.326    0.588    0.724    0.402    0.725    0.782    0.563    0.127    0.426    0.692    0.681    0.772    0.929    0.609    0.948    0.911    0.366    0.528    0.533    0.504    0.489    0.862    0.559    0.768    0.424    0.639    0.232    0.233    0.118    0.339    0.381    0.290    0.332    0.091    0.339    0.476    0.265    0.161    0.568    0.089    0.458   -0.023    0.458    0.434    0.505    0.575    0.694    0.581    0.451    0.505    0.125    0.462    0.653    0.398    0.173    0.043    0.882    0.789   -0.080    0.102   -0.219   -0.266   -0.225    0.026   -0.289   -0.128   -0.418    0.020    0.060   -0.005   -0.614   -1.054   -0.478   -1.036   -0.441   -0.632   -0.869   -0.402   -0.610   -0.997   -0.918   -0.927 
DATE 2017:044:06:37:18 obsn 609 az 140 el 49 freq_MHz  1420.4000 Tsys 171.000 Tant 28.283 vlsr  -13.96 glat 60.842 glon 262.346 source Moon 
Fstart 1419.397 fstop 1421.403 spacing 0.009375 bw    2.400 fbw    2.000 MHz nfreq 256 nsam 5242880 npoint 214 integ   315 sigma    0.199 bsw 29
Spectrum    288 integration periods
   1.250    1.416    1.636    0.985    1.466    1.053    1.334    1.087    1.355    1.411    1.144    1.371    0.895    1.533    1.121    0.910    0.837    1.170    1.264    1.208    1.101    1.505    1.257    1.526    0.593    0.968    0.764    1.222    0.567    0.746    1.205    1.486    0.843    0.871    0.688    0.904    0.406    0.671    0.570    0.446    0.524    0.288    1.024    0.410    0.395    0.471    0.283    0.797    0.250    0.254    0.048   -0.176    0.214    0.334   -0.334    0.515    0.636    0.344    0.210    0.438    0.176    0.125   -0.231    1.162    0.487    0.193    0.376    0.352    0.914    4.192   -1.387   -0.616    0.536    0.685    0.492    0.598    0.644    0.492    0.387    0.501    0.449    0.450    0.126    0.240    0.236    0.730    0.608    0.459    0.003    0.435    0.385    0.591    0.469    0.490    0.421    0.493    0.294   -0.153    0.446    0.392    0.538    0.491    0.283    0.433    0.344    0.250    0.015    0.484    0.266   -0.228    0.647    0.641    0.704    0.328    0.598    0.375    0.362    0.180   -0.351   -0.100   -0.375    0.414    0.292    0.890    1.654    1.337    0.853    0.865    1.084    1.071    1.110    0.343    0.264    0.506    0.685    0.296    0.611    0.671    0.512    0.087    0.360    0.625    0.585    0.643    0.842    0.515    0.857    0.751    0.235    0.375    0.408    0.464    0.409    0.717    0.458    0.747    0.332    0.547    0.161    0.119    0.062    0.234    0.319    0.242    0.265    0.013    0.236    0.381    0.175    0.127    0.503   -0.018    0.404   -0.118    0.372    0.330    0.433    0.495    0.659    0.527    0.386    0.390    0.008    0.331    0.526    0.362    0.122    0.016    0.881    0.732   -0.083    0.063   -0.248   -0.266   -0.240   -0.013   -0.361   -0.119   -0.404    0.007    0.031   -0.073   -0.684   -1.033   -0.485   -1.070   -0.412   -0.679   -0.884   -0.435   -0.557   -1.038   -0.908   -0.974 
DATE 2017:044:06:37:42 obsn 610 az 133 el 49 freq_MHz  1420.4000 Tsys 171.000 Tant 27.903 vlsr  -13.96 glat 60.842 glon 262.352 source Moon 
Fstart 1419.397 fstop 1421.403 spacing 0.009375 bw    2.400 fbw    2.000 MHz nfreq 256 nsam 5242880 npoint 214 integ   325 sigma    0.196 bsw 30
Spectrum    298 integration periods
   1.304    1.419    1.620    1.050    1.419    1.091    1.327    1.073    1.389    1.408    1.160    1.405    0.875    1.456    1.139    0.891    0.840    1.167    1.258    1.148    1.132    1.508    1.299    1.509    0.630    0.988    0.707    1.225    0.616    0.720    1.172    1.473    0.764    0.890    0.690    0.936    0.420    0.717    0.573    0.457    0.547    0.311    1.022    0.435    0.335    0.524    0.261    0.753    0.234    0.328    0.073   -0.156    0.263    0.398   -0.295    0.411    0.665    0.345    0.241    0.448    0.217    0.109   -0.198    1.077    0.470    0.294    0.369    0.420    0.868    4.192   -1.099   -0.622    0.545    0.728    0.539    0.666    0.607    0.458    0.356    0.536    0.400    0.474    0.125    0.297    0.215    0.706    0.610    0.469    0.020    0.449    0.370    0.540    0.470    0.480    0.387    0.449    0.298   -0.199    0.432    0.338    0.510    0.403    0.273    0.399    0.306    0.212   -0.001    0.473    0.311   -0.179    0.589    0.557    0.626    0.251    0.522    0.257    0.316    0.124   -0.414   -0.132   -0.484    0.312    0.167    0.750    1.556    1.242    0.817    0.828    0.998    1.030    1.100    0.370    0.155    0.420    0.593    0.250    0.553    0.651    0.446    0.109    0.363    0.584    0.561    0.619    0.887    0.458    0.835    0.688    0.231    0.344    0.342    0.491    0.397    0.692    0.431    0.667    0.231    0.503    0.163    0.071    0.113    0.153    0.246    0.225    0.280    0.008    0.222    0.374    0.175    0.172    0.500    0.018    0.343   -0.106    0.317    0.315    0.370    0.450    0.588    0.544    0.389    0.294    0.014    0.353    0.506    0.373    0.163   -0.006    0.815    0.739   -0.104    0.044   -0.224   -0.296   -0.276    0.048   -0.369   -0.201   -0.394   -0.053    0.018   -0.145   -0.628   -1.020   -0.469   -1.135   -0.636   -0.663   -0.857   -0.497   -0.537   -0.976   -0.959   -0.968 
DATE 2017:044:06:38:06 obsn 611 az 125 el 49 freq_MHz  1420.4000 Tsys 171.000 Tant 27.016 vlsr  -13.96 glat 60.842 glon 262.356 source Moon 
Fstart 1419.397 fstop 1421.403 spacing 0.009375 bw    2.400 fbw    2.000 MHz nfreq 256 nsam 5242880 npoint 214 integ   336 sigma    0.193 bsw 31
Spectrum    308 integration periods
   1.253    1.315    1.471    1.063    1.364    1.036    1.320    1.048    1.344    1.372    1.148    1.352    0.772    1.363    1.129    0.849    0.796    1.101    1.208    1.074    1.122    1.454    1.262    1.439    0.591    0.935    0.701    1.216    0.630    0.658    1.113    1.378    0.695    0.912    0.617    0.885    0.398    0.641    0.522    0.438    0.462    0.303    0.936    0.433    0.324    0.511    0.228    0.685    0.135    0.252   -0.026   -0.186    0.198    0.342   -0.346    0.347    0.612    0.298    0.204    0.397    0.245    0.039   -0.227    1.008    0.371    0.304    0.335    0.353    0.798    3.952   -1.164   -0.683    0.449    0.631    0.497    0.660    0.550    0.364    0.354    0.456    0.342    0.391    0.051    0.201    0.109    0.617    0.613    0.395   -0.015    0.411    0.315    0.450    0.393    0.416    0.318    0.426    0.255   -0.269    0.359    0.225    0.464    0.354    0.242    0.313    0.299    0.176   -0.050    0.447    0.296   -0.225    0.528    0.467    0.574    0.230    0.506    0.183    0.229    0.094   -0.437   -0.172   -0.527    0.231    0.072    0.637    1.546    1.140    0.804    0.706    0.971    0.893    1.025    0.326    0.118    0.400    0.569    0.204    0.482    0.474    0.408    0.092    0.290    0.474    0.507    0.548    0.726    0.398    0.776    0.631    0.188    0.255    0.282    0.435    0.326    0.662    0.333    0.558    0.194    0.428    0.142    0.033    0.043    0.067    0.218    0.248    0.254    0.025    0.171    0.271    0.062    0.135    0.443   -0.026    0.320   -0.137    0.272    0.309    0.333    0.392    0.567    0.491    0.376    0.234   -0.024    0.267    0.444    0.345    0.084   -0.142    0.822    0.737   -0.128    0.054   -0.214   -0.285   -0.317    0.043   -0.419   -0.255   -0.438   -0.047   -0.023   -0.201   -0.619   -0.971   -0.486   -1.124   -0.543   -0.681   -0.849   -0.508   -0.530   -0.968   -0.947   -1.003 
DATE 2017:044:06:38:38 obsn 612 az 133 el 49 freq_MHz  1420.4000 Tsys 171.000 Tant 27.305 vlsr  -13.96 glat 60.843 glon 262.361 source Moon 
Fstart 1419.397 fstop 1421.403 spacing 0.009375 bw    2.400 fbw    2.000 MHz nfreq 256 nsam 5242880 npoint 214 integ   347 sigma    0.190 bsw 32
Spectrum    318 integration periods
 190.295  194.926  197.281  199.141  199.596  199.880  199.857  200.443  199.664  199.553  199.140  199.467  198.905  199.093  198.846  198.966  199.388  198.749  198.846  199.059  199.155  199.149  199.243  199.367  199.800  199.734  199.706  199.808  200.756  199.886  200.081  199.969  200.005  200.111  200.154  200.135  199.959  200.324  200.056  200.125  200.209  200.657  199.825  199.780  199.729  199.617  199.326  199.088  199.083  199.088  199.395  198.352  198.377  197.843  198.987  198.514  198.327  198.091  197.270  196.918  196.796  196.267  196.963  198.459  195.866  195.716  195.580  196.650  196.821  209.319  201.385  197.934  195.099  194.565  194.603  195.453  194.856  194.391  194.659  194.617  194.568  194.653  194.912  195.168  195.672  195.439  195.801  196.238  196.710  197.464  197.183  197.052  197.414  197.350  197.155  197.171  198.177  198.364  197.306  197.786  197.807  197.703  197.879  197.925  197.900  198.632  198.042  198.267  197.954  198.558  198.181  197.888  198.063  198.477  198.692  198.647  198.877  199.338  200.662  200.458  201.792  202.575  203.220  203.454  203.433  201.762  200.808  199.663  199.172  199.598  198.442  199.081  198.177  198.165  198.264  197.890  197.831  197.323  197.160  198.002  197.056  196.982  196.782  197.136  197.147  197.116  197.104  197.185  197.666  197.293  197.258  197.354  198.287  197.540  198.184  198.205  198.194  198.093  197.904  197.974  198.943  198.072  198.211  198.227  198.363  198.689  198.412  198.388  198.356  198.812  198.340  198.461  198.337  199.121  198.226  198.308  198.394  198.265  198.117  198.152  198.175  198.235  198.989  198.378  198.220  198.103  198.275  198.329  198.224  198.350  198.618  198.365  198.465  198.665  199.412  199.241  199.279  199.216  199.170  199.198  199.542  199.467  199.542  200.440  199.357  201.212  201.522  199.630  199.664  199.837  199.939  200.615  200.534  199.753 
DATE 2017:044:06:38:51 obsn 613 az 133 el 49 freq_MHz  1420.4000 Tsys 171.000 Tant 27.617 vlsr  -13.96 glat 60.843 glon 262.366 source Moon 
Fstart 1419.397 fstop 1421.403 spacing 0.009375 bw    2.400 fbw    2.000 MHz nfreq 256 nsam 5242880 npoint 214 integ   358 sigma    0.187 bsw 32
Spectrum    328 integration periods
   1.278    1.196    1.475    1.075    1.419    0.910    1.256    0.989    1.258    1.322    1.167    1.360    0.773    1.351    1.168    0.844    0.866    1.072    1.243    1.001    1.178    1.385    1.215    1.287    0.597    0.914    0.787    1.235    0.697    0.635    1.115    1.433    0.780    0.954    0.675    0.882    0.398    0.723    0.579    0.354    0.388    0.374    0.906    0.479    0.309    0.525    0.154    0.665    0.208    0.349    0.151    0.013    0.201    0.343   -0.305    0.373    0.707    0.333    0.273    0.375    0.227    0.132   -0.121    1.127    0.318    0.426    0.280    0.390    0.661    3.813   -1.381   -0.595    0.379    0.635    0.515    0.707    0.565    0.421    0.431    0.483    0.421    0.385    0.019    0.235    0.149    0.616    0.593    0.445   -0.010    0.421    0.313    0.414    0.307    0.461    0.326    0.439    0.322   -0.200    0.328    0.293    0.461    0.343    0.278    0.276    0.268    0.181   -0.004    0.375    0.356   -0.131    0.517    0.478    0.576    0.328    0.535    0.143    0.206    0.099   -0.387   -0.215   -0.424    0.234    0.225    0.682    1.551    1.093    0.840    0.725    0.994    0.968    1.075    0.516    0.265    0.399    0.599    0.323    0.487    0.513    0.467    0.078    0.339    0.542    0.491    0.493    0.731    0.409    0.700    0.610    0.205    0.296    0.277    0.477    0.387    0.633    0.277    0.448    0.222    0.361    0.155   -0.001    0.120    0.088    0.191    0.214    0.221   -0.044    0.219    0.262    0.004    0.128    0.407   -0.001    0.302   -0.136    0.223    0.288    0.323    0.353    0.589    0.409    0.477    0.201    0.133    0.298    0.471    0.395    0.174   -0.154    0.821    0.721   -0.089    0.115   -0.107   -0.238   -0.205    0.179   -0.322   -0.186   -0.360    0.007    0.067   -0.216   -0.520   -0.902   -0.460   -0.854   -0.313   -0.632   -0.861   -0.451   -0.522   -0.931   -0.956   -0.909 
DATE 2017:044:06:39:15 obsn 614 az 141 el 49 freq_MHz  1420.4000 Tsys 171.000 Tant 27.499 vlsr  -13.96 glat 60.844 glon 262.371 source Moon 
Fstart 1419.397 fstop 1421.403 spacing 0.009375 bw    2.400 fbw    2.000 MHz nfreq 256 nsam 5242880 npoint 214 integ   369 sigma    0.184 bsw 33
Spectrum    338 integration periods
   1.298    1.212    1.475    1.102    1.438    0.919    1.253    0.982    1.270    1.326    1.208    1.392    0.750    1.417    1.164    0.855    0.923    1.039    1.213    1.032    1.246    1.310    1.239    1.325    0.633    0.952    0.795    1.264    0.812    0.637    1.151    1.398    0.794    0.982    0.643    0.943    0.434    0.772    0.624    0.426    0.410    0.359    0.915    0.476    0.358    0.520    0.212    0.683    0.244    0.373    0.168    0.050    0.243    0.357   -0.307    0.372    0.753    0.342    0.265    0.401    0.266    0.222   -0.084    1.034    0.296    0.442    0.261    0.430    0.713    3.962   -1.339   -0.772    0.413    0.689    0.523    0.761    0.598    0.453    0.458    0.536    0.394    0.363    0.055    0.270    0.178    0.609    0.613    0.446   -0.058    0.483    0.383    0.517    0.323    0.472    0.328    0.445    0.364   -0.167    0.338    0.238    0.448    0.329    0.208    0.238    0.253    0.182    0.007    0.355    0.319   -0.118    0.493    0.427    0.515    0.265    0.535    0.126    0.196    0.109   -0.407   -0.375   -0.569    0.097    0.100    0.547    1.545    1.106    0.835    0.705    0.982    0.921    1.020    0.461    0.224    0.354    0.538    0.300    0.473    0.437    0.412    0.096    0.395    0.555    0.505    0.532    0.771    0.440    0.708    0.628    0.214    0.288    0.224    0.498    0.386    0.636    0.253    0.505    0.212    0.331    0.130   -0.013    0.056    0.048    0.197    0.204    0.235   -0.023    0.218    0.235    0.006    0.053    0.323    0.004    0.273   -0.134    0.189    0.284    0.356    0.373    0.615    0.385    0.483    0.246    0.166    0.286    0.479    0.360    0.160   -0.176    0.771    0.708   -0.079    0.095   -0.101   -0.198   -0.187    0.182   -0.314   -0.207   -0.365    0.015    0.086   -0.158   -0.483   -0.883   -0.505   -0.940   -0.452   -0.641   -0.880   -0.451   -0.524   -0.935   -0.993   -0.940 
DATE 2017:044:06:39:47 obsn 615 az 134 el 49 freq_MHz  1420.4000 Tsys 171.000 Tant 26.823 vlsr  -13.97 glat 60.844 glon 262.378 source Moon 
Fstart 1419.397 fstop 1421.403 spacing 0.009375 bw    2.400 fbw    2.000 MHz nfreq 256 nsam 5242880 npoint 214 integ   380 sigma    0.181 bsw 34
Spectrum    348 integration periods
   1.245    1.158    1.414    1.071    1.433    0.953    1.223    1.011    1.244    1.297    1.137    1.333    0.704    1.432    1.151    0.853    0.912    0.992    1.127    0.947    1.256    1.321    1.157    1.195    0.607    0.927    0.730    1.208    0.792    0.641    1.165    1.309    0.760    0.970    0.608    0.932    0.432    0.710    0.586    0.372    0.355    0.300    0.874    0.416    0.306    0.454    0.165    0.640    0.268    0.299    0.178   -0.020    0.167    0.348   -0.328    0.339    0.678    0.362    0.231    0.320    0.204    0.237   -0.072    1.058    0.315    0.447    0.238    0.448    0.645    3.743   -1.398   -0.841    0.324    0.658    0.432    0.733    0.548    0.425    0.426    0.452    0.354    0.292    0.070    0.237    0.229    0.568    0.566    0.391   -0.108    0.401    0.405    0.419    0.299    0.416    0.262    0.418    0.358   -0.187    0.269    0.227    0.436    0.278    0.156    0.146    0.206    0.187   -0.022    0.355    0.261   -0.111    0.488    0.397    0.472    0.207    0.475    0.068    0.103    0.104   -0.366   -0.442   -0.646    0.019    0.033    0.474    1.470    1.040    0.832    0.675    0.935    0.881    1.022    0.434    0.155    0.259    0.486    0.258    0.480    0.342    0.372    0.081    0.376    0.542    0.428    0.496    0.720    0.387    0.670    0.633    0.135    0.227    0.175    0.420    0.376    0.567    0.241    0.521    0.206    0.302    0.168   -0.016    0.055    0.066    0.158    0.153    0.263   -0.060    0.202    0.195    0.038    0.045    0.291   -0.015    0.262   -0.164    0.158    0.240    0.267    0.326    0.537    0.327    0.438    0.198    0.167    0.242    0.428    0.307    0.106   -0.193    0.708    0.700   -0.060    0.111   -0.095   -0.199   -0.158    0.156   -0.340   -0.227   -0.402    0.027    0.116   -0.199   -0.581   -0.843   -0.519   -0.837   -0.394   -0.620   -0.802   -0.453   -0.470   -0.862   -0.909   -0.911 
DATE 2017:044:06:40:10 obsn 616 az 126 el 49 freq_MHz  1420.4000 Tsys 171.000 Tant 27.157 vlsr  -13.97 glat 60.844 glon 262.383 source Moon 
Fstart 1419.397 fstop 1421.403 spacing 0.009375 bw    2.400 fbw    2.000 MHz nfreq 256 nsam 5242880 npoint 214 integ   391 sigma    0.179 bsw 35
Spectrum    358 integration periods
   1.204    1.190    1.409    1.029    1.448    0.906    1.183    1.013    1.189    1.245    1.160    1.283    0.694    1.326    1.129    0.820    0.960    0.943    1.083    0.926    1.245    1.351    1.097    1.180    0.640    0.874    0.681    1.188    0.782    0.648    1.117    1.307    0.723    0.981    0.614    0.925    0.428    0.708    0.612    0.402    0.404    0.374    0.868    0.392    0.306    0.423    0.163    0.644    0.251    0.265    0.191   -0.033    0.176    0.343   -0.289    0.325    0.710    0.301    0.218    0.317    0.196    0.254   -0.075    1.009    0.263    0.400    0.190    0.430    0.620    3.787   -1.694   -0.841    0.300    0.655    0.491    0.798    0.577    0.417    0.412    0.452    0.333    0.359    0.051    0.199    0.213    0.588    0.534    0.386   -0.075    0.387    0.377    0.319    0.324    0.409    0.231    0.394    0.352   -0.127    0.229    0.196    0.408    0.258    0.100    0.097    0.157    0.187   -0.061    0.350    0.248   -0.106    0.443    0.378    0.426    0.176    0.430    0.117    0.115    0.039   -0.321   -0.356   -0.541    0.015    0.078    0.540    1.478    1.036    0.814    0.615    0.940    0.875    0.979    0.511    0.187    0.269    0.508    0.281    0.463    0.318    0.407    0.116    0.345    0.522    0.400    0.478    0.721    0.384    0.698    0.681    0.148    0.231    0.149    0.407    0.375    0.543    0.187    0.502    0.215    0.311    0.155   -0.019    0.028    0.008    0.170    0.084    0.238   -0.073    0.154    0.148    0.030    0.025    0.267   -0.004    0.219   -0.149    0.166    0.205    0.215    0.302    0.533    0.378    0.360    0.235    0.189    0.211    0.383    0.344    0.082   -0.152    0.727    0.745   -0.014    0.058   -0.098   -0.235   -0.152    0.176   -0.359   -0.295   -0.414    0.003    0.163   -0.155   -0.561   -0.804   -0.557   -0.733   -0.334   -0.620   -0.844   -0.498   -0.451   -0.864   -0.967   -0.894 
DATE 2017:044:06:40:34 obsn 617 az 134 el 49 freq_MHz  1420.4000 Tsys 171.000 Tant 28.684 vlsr  -13.97 glat 60.845 glon 262.388 source Moon 
Fstart 1419.397 fstop 1421.403 spacing 0.009375 bw    2.400 fbw    2.000 MHz nfreq 256 nsam 5242880 npoint 214 integ   402 sigma    0.176 bsw 36
Spectrum    368 integration periods
   1.191    1.162    1.398    1.039    1.388    0.926    1.171    1.032    1.180    1.223    1.109    1.274    0.740    1.298    1.120    0.819    0.962    0.932    1.009    0.858    1.217    1.333    1.082    1.201    0.641    0.841    0.679    1.128    0.836    0.653    1.102    1.252    0.691    1.002    0.606    0.924    0.455    0.661    0.618    0.417    0.431    0.394    0.886    0.361    0.336    0.458    0.187    0.654    0.205    0.284    0.155   -0.003    0.204    0.320   -0.241    0.355    0.683    0.346    0.213    0.339    0.120    0.225   -0.037    1.006    0.248    0.399    0.190    0.439    0.585    3.648   -1.844   -0.809    0.258    0.650    0.462    0.833    0.558    0.443    0.409    0.462    0.372    0.371    0.047    0.239    0.233    0.588    0.518    0.391   -0.074    0.413    0.437    0.362    0.351    0.395    0.258    0.392    0.399   -0.059    0.222    0.200    0.397    0.271    0.076    0.150    0.177    0.216   -0.074    0.347    0.238   -0.098    0.485    0.376    0.408    0.154    0.397    0.111    0.128    0.040   -0.297   -0.339   -0.521    0.031    0.124    0.573    1.442    1.087    0.842    0.634    0.954    0.880    0.993    0.560    0.226    0.267    0.497    0.296    0.459    0.327    0.386    0.166    0.337    0.517    0.382    0.513    0.709    0.389    0.730    0.644    0.137    0.170    0.154    0.427    0.426    0.567    0.146    0.556    0.230    0.304    0.169   -0.012    0.100    0.012    0.181    0.102    0.268   -0.099    0.173    0.188    0.045    0.012    0.212   -0.006    0.203   -0.164    0.176    0.178    0.202    0.325    0.571    0.373    0.342    0.253    0.219    0.161    0.401    0.338    0.112   -0.167    0.714    0.788    0.033    0.094   -0.063   -0.287   -0.100    0.240   -0.262   -0.262   -0.375    0.046    0.202   -0.118   -0.530   -0.753   -0.490   -0.569   -0.161   -0.576   -0.813   -0.445   -0.426   -0.766   -0.925   -0.786 
DATE 2017:044:06:40:58 obsn 618 az 142 el 49 freq_MHz  1420.4000 Tsys 171.000 Tant 27.734 vlsr  -13.97 glat 60.845 glon 262.393 source Moon 
Fstart 1419.397 fstop 1421.403 spacing 0.009375 bw    2.400 fbw    2.000 MHz nfreq 256 nsam 5242880 npoint 214 integ   413 sigma    0.174 bsw 37
Spectrum    378 integration periods
   1.217    1.167    1.358    1.052    1.331    0.964    1.170    1.110    1.216    1.204    1.123    1.250    0.788    1.242    1.124    0.822    0.978    0.919    0.974    0.815    1.240    1.270    1.021    1.186    0.606    0.839    0.689    1.133    0.819    0.676    1.074    1.226    0.674    0.941    0.598    0.873    0.436    0.684    0.621    0.383    0.400    0.421    0.885    0.408    0.288    0.478    0.201    0.609    0.201    0.320    0.142    0.026    0.207    0.317   -0.248    0.340    0.668    0.382    0.200    0.330    0.127    0.243   -0.015    1.029    0.238    0.408    0.202    0.405    0.619    3.613   -1.816   -1.007    0.305    0.642    0.443    0.792    0.551    0.491    0.389    0.472    0.370    0.369    0.034    0.227    0.270    0.596    0.539    0.426   -0.050    0.408    0.403    0.319    0.353    0.390    0.221    0.392    0.378   -0.028    0.199    0.211    0.412    0.273    0.087    0.149    0.153    0.208   -0.046    0.334    0.222   -0.088    0.468    0.349    0.355    0.142    0.375    0.084    0.136    0.009   -0.285   -0.384   -0.607   -0.057    0.046    0.485    1.417    1.052    0.862    0.570    0.917    0.835    0.975    0.538    0.223    0.265    0.485    0.267    0.480    0.367    0.446    0.153    0.348    0.526    0.368    0.468    0.674    0.384    0.692    0.627    0.142    0.124    0.145    0.447    0.428    0.529    0.176    0.477    0.244    0.252    0.157   -0.048    0.104   -0.054    0.126    0.101    0.219   -0.100    0.186    0.154    0.024   -0.040    0.168   -0.021    0.189   -0.149    0.130    0.163    0.213    0.290    0.594    0.392    0.318    0.244    0.219    0.153    0.384    0.289    0.121   -0.192    0.671    0.741    0.079    0.113   -0.034   -0.301   -0.028    0.235   -0.274   -0.265   -0.334    0.026    0.182   -0.079   -0.494   -0.725   -0.517   -0.608   -0.154   -0.584   -0.809   -0.432   -0.412   -0.741   -0.908   -0.782 
DATE 2017:044:06:41:22 obsn 619 az 134 el 49 freq_MHz  1420.4000 Tsys 171.000 Tant 27.124 vlsr  -13.97 glat 60.846 glon 262.399 source Moon 
Fstart 1419.397 fstop 1421.403 spacing 0.009375 bw    2.400 fbw    2.000 MHz nfreq 256 nsam 5242880 npoint 214 integ   424 sigma    0.172 bsw 38
Spectrum    388 integration periods
   1.196    1.117    1.343    1.052    1.266    0.984    1.178    1.156    1.196    1.227    1.173    1.228    0.769    1.212    1.081    0.784    1.006    0.919    0.957    0.795    1.236    1.291    1.015    1.158    0.590    0.770    0.698    1.117    0.839    0.671    1.055    1.195    0.654    0.930    0.637    0.860    0.394    0.661    0.598    0.376    0.389    0.483    0.869    0.402    0.261    0.492    0.239    0.607    0.205    0.293    0.114    0.052    0.179    0.309   -0.295    0.317    0.677    0.372    0.223    0.307    0.149    0.255   -0.038    0.986    0.239    0.408    0.198    0.424    0.622    3.556   -1.887   -1.199    0.301    0.618    0.439    0.827    0.532    0.498    0.396    0.422    0.332    0.335    0.059    0.236    0.276    0.605    0.525    0.361   -0.015    0.425    0.367    0.310    0.369    0.366    0.258    0.364    0.382    0.018    0.223    0.195    0.362    0.251    0.036    0.174    0.096    0.205   -0.080    0.300    0.158   -0.130    0.483    0.276    0.375    0.146    0.370    0.031    0.081   -0.007   -0.296   -0.398   -0.671   -0.143   -0.015    0.449    1.452    1.020    0.813    0.509    0.861    0.767    0.881    0.530    0.179    0.160    0.427    0.252    0.441    0.287    0.382    0.156    0.359    0.522    0.298    0.452    0.655    0.388    0.737    0.593    0.089    0.080    0.122    0.456    0.392    0.533    0.188    0.459    0.204    0.272    0.124   -0.068    0.097   -0.046    0.062    0.072    0.184   -0.149    0.119    0.101    0.028   -0.034    0.174    0.008    0.169   -0.121    0.134    0.137    0.196    0.219    0.581    0.366    0.325    0.209    0.241    0.172    0.354    0.315    0.146   -0.254    0.656    0.760    0.049    0.052   -0.015   -0.269   -0.008    0.243   -0.303   -0.271   -0.369    0.009    0.178   -0.169   -0.525   -0.720   -0.523   -0.637   -0.226   -0.563   -0.874   -0.434   -0.404   -0.808   -0.914   -0.741 
DATE 2017:044:06:41:46 obsn 620 az 126 el 49 freq_MHz  1420.4000 Tsys 171.000 Tant 27.191 vlsr  -13.97 glat 60.846 glon 262.404 source Moon 
Fstart 1419.397 fstop 1421.403 spacing 0.009375 bw    2.400 fbw    2.000 MHz nfreq 256 nsam 5242880 npoint 214 integ   435 sigma    0.169 bsw 39
Spectrum    398 integration periods
   1.143    1.055    1.295    1.072    1.194    0.884    1.122    1.120    1.095    1.188    1.123    1.116    0.711    1.149    1.030    0.725    1.024    0.881    0.916    0.722    1.210    1.218    0.917    1.121    0.596    0.710    0.626    1.053    0.803    0.652    0.969    1.109    0.571    0.852    0.582    0.823    0.340    0.606    0.558    0.311    0.339    0.488    0.866    0.393    0.240    0.458    0.181    0.570    0.164    0.306    0.105    0.015    0.153    0.295   -0.334    0.259    0.629    0.345    0.155    0.315    0.131    0.214   -0.026    0.995    0.169    0.361    0.183    0.409    0.539    3.457   -1.807   -1.208    0.230    0.596    0.330    0.769    0.479    0.399    0.306    0.365    0.291    0.259    0.045    0.218    0.240    0.552    0.521    0.296   -0.086    0.358    0.295    0.259    0.386    0.353    0.206    0.344    0.358    0.028    0.176    0.175    0.372    0.208   -0.020    0.195    0.094    0.191   -0.103    0.275    0.158   -0.095    0.454    0.229    0.284    0.101    0.301    0.039    0.074   -0.021   -0.287   -0.417   -0.723   -0.103    0.004    0.505    1.448    1.015    0.782    0.488    0.858    0.728    0.850    0.535    0.136    0.131    0.399    0.252    0.411    0.310    0.384    0.184    0.258    0.450    0.238    0.431    0.611    0.349    0.678    0.592    0.122    0.067    0.098    0.421    0.478    0.558    0.167    0.443    0.179    0.220    0.045   -0.164    0.091   -0.109    0.033    0.043    0.186   -0.139    0.051    0.090   -0.026   -0.041    0.118   -0.058    0.109   -0.134    0.065    0.058    0.149    0.176    0.604    0.340    0.298    0.171    0.287    0.174    0.308    0.303    0.111   -0.265    0.626    0.716    0.047    0.002    0.004   -0.272   -0.007    0.232   -0.329   -0.249   -0.369    0.008    0.186   -0.182   -0.497   -0.657   -0.518   -0.543   -0.167   -0.504   -0.900   -0.468   -0.434   -0.815   -0.917   -0.742 
DATE 2017:044:06:42:26 obsn 621 az 134 el 50 freq_MHz  1420.4000 Tsys 171.000 Tant 27.572 vlsr  -13.98 glat 60.847 glon 262.412 source Moon 
Fstart 1419.397 fstop 1421.403 spacing 0.009375 bw    2.400 fbw    2.000 MHz nfreq 256 nsam 5242880 npoint 214 integ   446 sigma    0.167 bsw 40
Spectrum    408 integration periods
   1.116    1.044    1.208    1.042    1.083    0.820    1.049    1.085    1.018    1.115    1.063    1.010    0.663    1.106    0.949    0.627    0.995    0.837    0.870    0.635    1.142    1.102    0.796    1.054    0.548    0.695    0.585    1.030    0.757    0.628    0.942    0.981    0.485    0.757    0.499    0.771    0.347    0.592    0.536    0.254    0.386    0.467    0.787    0.363    0.218    0.347    0.115    0.507    0.147    0.277    0.093   -0.060    0.084    0.230   -0.346    0.206    0.551    0.289    0.125    0.258    0.065    0.168   -0.022    0.963    0.160    0.333    0.064    0.308    0.434    3.408   -1.724   -1.216    0.180    0.535    0.286    0.770    0.470    0.391    0.281    0.310    0.266    0.235    0.059    0.201    0.222    0.527    0.525    0.250   -0.089    0.358    0.253    0.200    0.286    0.284    0.175    0.248    0.340   -0.012    0.132    0.172    0.373    0.192   -0.053    0.149    0.071    0.119   -0.103    0.189    0.090   -0.123    0.399    0.157    0.250    0.091    0.290    0.050    0.007   -0.100   -0.300   -0.417   -0.744   -0.106    0.027    0.477    1.413    0.964    0.737    0.488    0.829    0.703    0.848    0.516    0.139    0.127    0.365    0.226    0.426    0.235    0.334    0.155    0.252    0.360    0.200    0.413    0.597    0.353    0.647    0.557    0.092    0.022    0.065    0.380    0.504    0.529    0.177    0.415    0.145    0.185   -0.033   -0.176    0.094   -0.127   -0.033    0.020    0.135   -0.184   -0.008    0.037   -0.043   -0.093    0.062   -0.084    0.068   -0.134    0.026   -0.029    0.094    0.182    0.588    0.319    0.248    0.137    0.292    0.147    0.310    0.265    0.101   -0.318    0.621    0.667    0.062    0.015    0.046   -0.306   -0.012    0.200   -0.312   -0.250   -0.353   -0.009    0.158   -0.199   -0.481   -0.622   -0.502   -0.509   -0.108   -0.492   -0.929   -0.447   -0.454   -0.797   -0.899   -0.780 
DATE 2017:044:06:42:50 obsn 622 az 142 el 50 freq_MHz  1420.4000 Tsys 171.000 Tant 28.003 vlsr  -13.98 glat 60.847 glon 262.417 source Moon 
Fstart 1419.397 fstop 1421.403 spacing 0.009375 bw    2.400 fbw    2.000 MHz nfreq 256 nsam 5242880 npoint 214 integ   457 sigma    0.165 bsw 41
Spectrum    418 integration periods
   1.088    1.043    1.148    1.089    1.018    0.772    0.964    1.132    1.030    1.073    1.037    1.000    0.678    1.060    0.928    0.618    1.030    0.821    0.870    0.640    1.115    1.088    0.825    1.021    0.492    0.646    0.568    1.011    0.790    0.597    0.912    1.012    0.494    0.753    0.534    0.748    0.359    0.575    0.543    0.269    0.379    0.499    0.776    0.373    0.252    0.317    0.133    0.485    0.135    0.276    0.121   -0.089    0.095    0.207   -0.301    0.177    0.557    0.260    0.111    0.267    0.023    0.144   -0.014    0.933    0.135    0.306    0.038    0.374    0.410    3.244   -1.550   -1.198    0.201    0.548    0.308    0.792    0.443    0.406    0.253    0.283    0.260    0.222    0.062    0.157    0.307    0.485    0.532    0.283   -0.034    0.412    0.252    0.196    0.322    0.354    0.186    0.221    0.393    0.036    0.181    0.194    0.346    0.219   -0.055    0.183    0.106    0.170   -0.101    0.195    0.081   -0.090    0.393    0.174    0.285    0.049    0.280    0.099    0.012   -0.078   -0.239   -0.448   -0.741   -0.098   -0.003    0.499    1.407    1.000    0.803    0.473    0.850    0.749    0.868    0.553    0.143    0.158    0.330    0.238    0.427    0.265    0.344    0.239    0.308    0.388    0.197    0.481    0.603    0.372    0.673    0.581    0.185    0.039    0.075    0.389    0.515    0.556    0.218    0.447    0.198    0.167    0.015   -0.185    0.136   -0.122    0.001    0.002    0.118   -0.153   -0.037    0.037   -0.058   -0.072    0.105   -0.092    0.091   -0.094    0.036   -0.028    0.064    0.207    0.534    0.368    0.308    0.146    0.365    0.158    0.329    0.276    0.171   -0.240    0.657    0.713    0.158    0.071    0.084   -0.259    0.076    0.236   -0.205   -0.147   -0.266    0.081    0.218   -0.114   -0.389   -0.563   -0.431   -0.419   -0.044   -0.441   -0.876   -0.403   -0.376   -0.741   -0.845   -0.765 
DATE 2017:044:06:43:14 obsn 623 az 135 el 50 freq_MHz  1420.4000 Tsys 171.000 Tant 27.861 vlsr  -13.98 glat 60.847 glon 262.420 source Moon 
Fstart 1419.397 fstop 1421.403 spacing 0.009375 bw    2.400 fbw    2.000 MHz nfreq 256 nsam 5242880 npoint 214 integ   467 sigma    0.163 bsw 42
Spectrum    428 integration periods
 190.171  194.796  197.179  199.118  199.505  199.735  199.746  200.390  199.611  199.484  198.986  199.412  198.829  199.003  198.747  198.840  199.304  198.714  198.728  199.033  199.040  199.060  199.229  199.258  199.702  199.523  199.630  199.600  200.700  199.717  199.880  200.010  199.927  200.071  200.117  199.992  199.877  200.251  199.957  199.896  199.979  200.579  199.788  199.651  199.595  199.626  199.146  198.946  198.971  198.978  199.430  198.207  198.216  197.900  198.908  198.375  198.191  198.124  197.281  196.791  196.567  196.152  196.902  198.654  195.788  195.594  195.559  196.597  196.602  208.449  201.911  198.250  194.918  194.388  194.474  195.305  194.705  194.261  194.510  194.403  194.526  194.509  194.828  195.085  195.632  195.329  195.714  196.132  196.605  197.297  197.131  196.970  197.347  197.262  197.116  197.078  198.167  198.262  197.256  197.746  197.822  197.657  197.780  197.846  197.933  198.719  197.999  198.186  197.940  198.512  198.116  197.843  198.006  198.411  198.595  198.571  198.839  199.270  200.649  200.428  201.790  202.646  203.224  203.481  203.338  201.705  200.833  199.581  199.172  199.556  198.561  199.139  198.217  198.183  198.210  197.907  197.838  197.372  197.174  198.005  197.001  196.948  196.735  197.050  196.904  197.015  196.971  197.080  197.646  197.266  197.213  197.307  198.277  197.453  198.109  198.190  198.115  197.917  197.948  197.867  199.038  198.078  198.149  198.185  198.327  198.567  198.327  198.353  198.279  198.834  198.306  198.246  198.267  199.022  198.109  198.153  198.223  198.054  198.002  198.021  198.110  198.139  198.984  198.364  198.171  198.128  198.342  198.181  198.209  198.382  198.703  198.407  198.422  198.593  199.442  199.354  199.353  199.391  199.164  199.366  199.650  199.505  199.575  200.485  199.521  201.868  202.081  199.707  199.778  199.924  200.099  200.702  200.660  199.851 
DATE 2017:044:06:43:27 obsn 624 az 135 el 50 freq_MHz  1420.4000 Tsys 171.000 Tant 26.876 vlsr  -13.98 glat 60.848 glon 262.425 source Moon 
Fstart 1419.397 fstop 1421.403 spacing 0.009375 bw    2.400 fbw    2.000 MHz nfreq 256 nsam 5242880 npoint 214 integ   478 sigma    0.161 bsw 42
Spectrum    438 integration periods
   1.031    0.985    1.097    1.103    0.955    0.680    0.958    1.113    0.928    0.961    1.058    0.892    0.719    1.008    0.879    0.574    1.046    0.773    0.808    0.562    1.096    0.978    0.710    0.985    0.533    0.608    0.519    0.963    0.782    0.577    0.896    0.880    0.532    0.690    0.479    0.732    0.293    0.618    0.520    0.160    0.316    0.436    0.685    0.331    0.152    0.234    0.085    0.447    0.093    0.215    0.050   -0.084    0.068    0.184   -0.305    0.217    0.576    0.230    0.130    0.248    0.024    0.162    0.032    0.881    0.161    0.293   -0.006    0.345    0.366    2.939   -1.749   -1.551    0.171    0.472    0.253    0.785    0.391    0.402    0.138    0.235    0.188    0.166    0.086    0.112    0.358    0.416    0.521    0.279   -0.013    0.398    0.190    0.150    0.319    0.289    0.172    0.212    0.406    0.071    0.136    0.113    0.309    0.149   -0.072    0.167    0.049    0.148   -0.104    0.190   -0.009   -0.079    0.379    0.123    0.210    0.054    0.250    0.039   -0.003   -0.164   -0.283   -0.554   -0.834   -0.226   -0.118    0.430    1.290    0.971    0.818    0.454    0.809    0.699    0.754    0.538    0.140    0.086    0.236    0.170    0.373    0.225    0.314    0.236    0.276    0.351    0.147    0.473    0.538    0.301    0.615    0.562    0.231    0.008    0.065    0.368    0.613    0.543    0.278    0.451    0.152    0.193   -0.004   -0.206    0.220   -0.134   -0.046   -0.012    0.091   -0.156   -0.081    0.010   -0.059   -0.041    0.084   -0.098    0.091   -0.025    0.075   -0.016   -0.025    0.160    0.539    0.432    0.272    0.133    0.437    0.132    0.298    0.316    0.194   -0.179    0.610    0.661    0.146    0.091    0.120   -0.209    0.124    0.241   -0.219   -0.171   -0.280    0.071    0.209   -0.149   -0.344   -0.467   -0.404   -0.479   -0.141   -0.390   -0.815   -0.373   -0.350   -0.652   -0.738   -0.699 
DATE 2017:044:06:43:51 obsn 625 az 127 el 50 freq_MHz  1420.4000 Tsys 171.000 Tant 27.169 vlsr  -13.98 glat 60.848 glon 262.430 source Moon 
Fstart 1419.397 fstop 1421.403 spacing 0.009375 bw    2.400 fbw    2.000 MHz nfreq 256 nsam 5242880 npoint 214 integ   489 sigma    0.160 bsw 43
Spectrum    448 integration periods
   0.996    0.972    1.090    1.125    0.944    0.660    0.929    1.109    0.879    0.935    1.060    0.900    0.681    0.946    0.858    0.563    1.050    0.772    0.800    0.514    1.070    0.962    0.720    0.952    0.543    0.626    0.523    0.988    0.774    0.593    0.890    0.866    0.542    0.716    0.512    0.728    0.260    0.603    0.484    0.146    0.271    0.441    0.665    0.281    0.182    0.230    0.103    0.393    0.146    0.223    0.118   -0.085    0.091    0.144   -0.182    0.201    0.563    0.252    0.093    0.270    0.043    0.122    0.063    0.936    0.113    0.281   -0.019    0.378    0.374    3.104   -1.880   -1.518    0.192    0.464    0.200    0.805    0.407    0.402    0.124    0.284    0.192    0.174    0.110    0.150    0.334    0.426    0.498    0.257   -0.019    0.415    0.186    0.136    0.319    0.310    0.181    0.240    0.444    0.123    0.101    0.149    0.301    0.123   -0.021    0.190    0.078    0.196   -0.083    0.158   -0.018   -0.053    0.387    0.139    0.206    0.071    0.276    0.045    0.058   -0.106   -0.240   -0.516   -0.780   -0.155   -0.001    0.521    1.326    0.952    0.799    0.498    0.814    0.707    0.778    0.535    0.142    0.118    0.235    0.184    0.365    0.212    0.304    0.281    0.252    0.372    0.135    0.475    0.514    0.299    0.627    0.558    0.236   -0.021    0.102    0.409    0.613    0.534    0.336    0.430    0.176    0.216   -0.033   -0.182    0.238   -0.141   -0.021   -0.013    0.083   -0.103   -0.031    0.023   -0.069   -0.035    0.051   -0.093    0.136    0.009    0.085   -0.018   -0.021    0.159    0.537    0.424    0.301    0.138    0.512    0.121    0.345    0.331    0.207   -0.164    0.626    0.649    0.169    0.083    0.098   -0.188    0.199    0.262   -0.198   -0.173   -0.247    0.065    0.233   -0.104   -0.361   -0.416   -0.421   -0.394   -0.091   -0.398   -0.794   -0.359   -0.366   -0.596   -0.703   -0.669 
DATE 2017:044:06:44:15 obsn 626 az 135 el 50 freq_MHz  1420.4000 Tsys 171.000 Tant 27.648 vlsr  -13.98 glat 60.849 glon 262.435 source Moon 
Fstart 1419.397 fstop 1421.403 spacing 0.009375 bw    2.400 fbw    2.000 MHz nfreq 256 nsam 5242880 npoint 214 integ   500 sigma    0.158 bsw 44
Spectrum    458 integration periods
   1.071    1.033    1.114    1.229    1.041    0.695    0.958    1.113    0.929    0.922    1.064    0.884    0.666    0.970    0.843    0.537    1.096    0.768    0.744    0.490    1.045    0.955    0.686    0.962    0.506    0.586    0.493    0.947    0.790    0.554    0.859    0.829    0.587    0.722    0.521    0.720    0.276    0.603    0.489    0.173    0.287    0.528    0.676    0.273    0.234    0.220    0.152    0.399    0.127    0.187    0.172   -0.041    0.109    0.190   -0.144    0.233    0.542    0.316    0.142    0.293    0.110    0.137    0.192    0.980    0.118    0.324    0.090    0.439    0.451    3.098   -1.986   -1.461    0.285    0.534    0.277    0.869    0.472    0.464    0.180    0.370    0.265    0.213    0.128    0.134    0.396    0.410    0.509    0.254    0.007    0.444    0.178    0.123    0.342    0.287    0.188    0.242    0.451    0.183    0.128    0.149    0.342    0.152    0.061    0.196    0.120    0.286   -0.026    0.235    0.044    0.022    0.438    0.205    0.276    0.136    0.349    0.125    0.143   -0.044   -0.103   -0.416   -0.722   -0.055    0.158    0.549    1.404    1.070    0.889    0.642    0.907    0.777    0.879    0.694    0.266    0.281    0.370    0.332    0.471    0.330    0.510    0.527    0.369    0.501    0.315    0.659    0.673    0.486    0.760    0.722    0.361    0.139    0.249    0.531    0.734    0.625    0.406    0.572    0.274    0.255    0.080   -0.109    0.369   -0.061    0.032    0.052    0.142   -0.006    0.060    0.138    0.007    0.055    0.076   -0.035    0.161    0.128    0.121    0.017   -0.009    0.166    0.579    0.456    0.368    0.166    0.590    0.167    0.395    0.351    0.261   -0.112    0.624    0.654    0.225    0.101    0.074   -0.146    0.280    0.261   -0.188   -0.179   -0.192    0.084    0.257   -0.062   -0.317   -0.319   -0.404   -0.211    0.029   -0.353   -0.734   -0.272   -0.295   -0.524   -0.647   -0.667 
DATE 2017:044:06:44:38 obsn 627 az 143 el 50 freq_MHz  1420.4000 Tsys 171.000 Tant 33.928 vlsr  -13.98 glat 60.849 glon 262.440 source Moon 
Fstart 1419.397 fstop 1421.403 spacing 0.009375 bw    2.400 fbw    2.000 MHz nfreq 256 nsam 5242880 npoint 214 integ   511 sigma    0.156 bsw 45
Spectrum    468 integration periods
   0.207    0.127    0.279    0.362    0.172   -0.226    0.120    0.230    0.073    0.098    0.263    0.081   -0.121    0.223    0.090   -0.233    0.413    0.074    0.017   -0.190    0.413    0.334    0.155    0.452   -0.002    0.118    0.123    0.580    0.517    0.236    0.605    0.579    0.399    0.573    0.312    0.533    0.111    0.486    0.315    0.040    0.133    0.392    0.525    0.101    0.006    0.043   -0.037    0.244   -0.020    0.021    0.015   -0.203   -0.028   -0.011   -0.319    0.117    0.440    0.212    0.021    0.139    0.023    0.033    0.106    0.913   -0.018    0.185   -0.016    0.383    0.298    2.914   -2.223   -1.809    0.138    0.385    0.125    0.671    0.256    0.228   -0.099    0.111   -0.042   -0.059   -0.171   -0.167    0.097    0.144    0.217   -0.021   -0.285    0.159   -0.057   -0.129    0.135    0.063    0.011    0.045    0.292    0.075   -0.010   -0.004    0.226    0.012   -0.037    0.055    0.014    0.140   -0.161    0.082   -0.115   -0.167    0.249   -0.003    0.057   -0.077    0.110   -0.092   -0.111   -0.263   -0.381   -0.658   -0.938   -0.291   -0.107    0.353    1.292    0.960    0.800    0.559    0.860    0.723    0.802    0.622    0.213    0.203    0.325    0.275    0.499    0.308    0.500    0.491    0.317    0.507    0.251    0.639    0.609    0.451    0.692    0.640    0.284    0.030    0.156    0.441    0.607    0.499    0.276    0.464    0.133    0.174   -0.019   -0.236    0.221   -0.167   -0.041   -0.054    0.022   -0.067    0.007    0.066   -0.057   -0.004    0.002   -0.120    0.108    0.056    0.043   -0.027   -0.036    0.148    0.571    0.436    0.330    0.169    0.554    0.178    0.412    0.336    0.252   -0.093    0.604    0.639    0.250    0.101    0.112   -0.166    0.272    0.235   -0.182   -0.210   -0.252    0.069    0.182   -0.122   -0.420   -0.440   -0.507   -0.498   -0.270   -0.525   -0.857   -0.445   -0.439   -0.693   -0.846   -0.845 
DATE 2017:044:06:45:02 obsn 628 az 135 el 50 freq_MHz  1420.4000 Tsys 171.000 Tant 28.142 vlsr  -13.99 glat 60.849 glon 262.446 source Moon 
Fstart 1419.397 fstop 1421.403 spacing 0.009375 bw    2.400 fbw    2.000 MHz nfreq 256 nsam 5242880 npoint 214 integ   522 sigma    0.155 bsw 46
Spectrum    478 integration periods
   0.097    0.023    0.173    0.260    0.071   -0.335    0.018    0.129   -0.055   -0.046    0.111   -0.019   -0.245    0.086   -0.054   -0.377    0.286   -0.045   -0.128   -0.346    0.274    0.158    0.037    0.307   -0.114    0.031    0.052    0.469    0.475    0.129    0.543    0.509    0.368    0.614    0.278    0.513    0.093    0.481    0.288    0.031    0.126    0.407    0.469    0.032    0.016    0.060   -0.039    0.240   -0.045    0.020    0.067   -0.201   -0.049   -0.046   -0.339    0.092    0.416    0.246    0.038    0.162    0.045    0.082    0.206    0.930   -0.008    0.233    0.019    0.424    0.341    2.828   -2.207   -1.892    0.191    0.395    0.176    0.727    0.259    0.224   -0.082    0.092   -0.056   -0.124   -0.181   -0.224    0.108    0.117    0.127   -0.039   -0.298    0.114   -0.128   -0.129    0.071    0.040    0.002    0.009    0.263    0.090   -0.019   -0.002    0.223    0.010   -0.033    0.040    0.034    0.133   -0.159    0.095   -0.086   -0.147    0.196    0.008    0.055   -0.053    0.111   -0.130   -0.120   -0.279   -0.361   -0.688   -0.937   -0.346   -0.136    0.355    1.264    0.962    0.860    0.611    0.943    0.778    0.858    0.672    0.310    0.288    0.425    0.352    0.606    0.435    0.644    0.644    0.427    0.623    0.331    0.746    0.677    0.583    0.788    0.670    0.386    0.085    0.207    0.454    0.715    0.504    0.313    0.504    0.172    0.174   -0.035   -0.189    0.296   -0.114   -0.043   -0.029    0.039   -0.059    0.032    0.086   -0.019    0.002    0.022   -0.082    0.116    0.115    0.030   -0.021   -0.024    0.107    0.596    0.454    0.325    0.186    0.585    0.175    0.440    0.344    0.300   -0.042    0.602    0.642    0.279    0.106    0.119   -0.158    0.281    0.255   -0.158   -0.171   -0.232    0.100    0.179   -0.109   -0.449   -0.385   -0.520   -0.492   -0.315   -0.570   -0.858   -0.459   -0.470   -0.689   -0.825   -0.862 
DATE 2017:044:06:45:34 obsn 629 az 128 el 50 freq_MHz  1420.4000 Tsys 171.000 Tant 29.004 vlsr  -13.99 glat 60.850 glon 262.452 source Moon 
Fstart 1419.397 fstop 1421.403 spacing 0.009375 bw    2.400 fbw    2.000 MHz nfreq 256 nsam 5242880 npoint 214 integ   533 sigma    0.153 bsw 47
Spectrum    488 integration periods
   0.153    0.023    0.228    0.351    0.130   -0.253    0.084    0.179    0.016    0.005    0.103    0.012   -0.185    0.132   -0.062   -0.332    0.324   -0.022   -0.119   -0.343    0.284    0.147    0.038    0.311   -0.142    0.062    0.039    0.440    0.509    0.127    0.585    0.482    0.389    0.639    0.306    0.518    0.106    0.511    0.350    0.047    0.175    0.450    0.498    0.046    0.010    0.060    0.010    0.270   -0.039    0.017    0.087   -0.231   -0.020   -0.068   -0.330    0.056    0.438    0.223    0.068    0.184    0.108    0.081    0.238    0.951    0.003    0.258    0.049    0.378    0.377    2.927   -2.058   -1.827    0.209    0.426    0.220    0.752    0.325    0.259   -0.055    0.119   -0.017   -0.142   -0.144   -0.214    0.131    0.145    0.132   -0.047   -0.277    0.125   -0.143   -0.092    0.095    0.017   -0.031    0.012    0.270    0.142   -0.018    0.011    0.245    0.032    0.021    0.039    0.057    0.197   -0.111    0.111   -0.074   -0.091    0.235    0.010    0.097   -0.034    0.115   -0.128   -0.074   -0.232   -0.284   -0.637   -0.885   -0.331   -0.073    0.396    1.284    1.007    0.941    0.679    0.971    0.837    0.910    0.755    0.359    0.346    0.491    0.442    0.693    0.520    0.705    0.755    0.494    0.689    0.401    0.856    0.707    0.658    0.803    0.762    0.427    0.137    0.249    0.529    0.820    0.531    0.327    0.558    0.222    0.223   -0.001   -0.148    0.324   -0.101   -0.030   -0.034    0.044   -0.044    0.032    0.133    0.009    0.071    0.019   -0.056    0.094    0.167    0.069   -0.034    0.020    0.136    0.622    0.473    0.301    0.197    0.645    0.184    0.504    0.370    0.353   -0.028    0.601    0.666    0.327    0.110    0.164   -0.095    0.338    0.292   -0.107   -0.137   -0.160    0.144    0.215   -0.070   -0.399   -0.303   -0.469   -0.407   -0.208   -0.475   -0.775   -0.416   -0.419   -0.648   -0.764   -0.819 
DATE 2017:044:06:45:58 obsn 630 az 135 el 50 freq_MHz  1420.4000 Tsys 171.000 Tant 27.894 vlsr  -13.99 glat 60.850 glon 262.457 source Moon 
Fstart 1419.397 fstop 1421.403 spacing 0.009375 bw    2.400 fbw    2.000 MHz nfreq 256 nsam 5242880 npoint 214 integ   544 sigma    0.151 bsw 48
Spectrum    498 integration periods
   0.146   -0.008    0.191    0.345    0.105   -0.257    0.062    0.182   -0.027   -0.003    0.074    0.010   -0.199    0.122   -0.078   -0.350    0.312   -0.047   -0.107   -0.397    0.260    0.082    0.022    0.265   -0.145    0.060    0.000    0.394    0.473    0.113    0.561    0.435    0.336    0.629    0.286    0.477    0.045    0.491    0.300    0.057    0.114    0.421    0.478   -0.029   -0.017    0.024   -0.016    0.225   -0.088   -0.026    0.089   -0.278   -0.055   -0.118   -0.331    0.064    0.413    0.192    0.040    0.136    0.082    0.065    0.248    0.932   -0.047    0.213    0.070    0.361    0.344    2.875   -1.871   -1.827    0.208    0.381    0.247    0.757    0.278    0.222   -0.099    0.082   -0.084   -0.183   -0.190   -0.217    0.129    0.129    0.142   -0.080   -0.300    0.124   -0.155   -0.084    0.109   -0.037   -0.035   -0.006    0.262    0.157   -0.012   -0.000    0.235   -0.001   -0.037    0.000    0.034    0.195   -0.078    0.121   -0.094   -0.091    0.198   -0.042    0.081   -0.041    0.104   -0.145   -0.089   -0.250   -0.245   -0.606   -0.896   -0.301   -0.036    0.418    1.286    0.961    0.958    0.657    0.937    0.774    0.847    0.732    0.348    0.349    0.501    0.380    0.695    0.491    0.668    0.742    0.496    0.698    0.356    0.842    0.685    0.587    0.793    0.730    0.427    0.156    0.225    0.526    0.841    0.478    0.302    0.546    0.200    0.225   -0.014   -0.171    0.317   -0.099   -0.065   -0.084    0.028   -0.028   -0.039    0.128   -0.002    0.071    0.022   -0.073    0.055    0.199    0.016   -0.065    0.009    0.142    0.623    0.454    0.264    0.152    0.693    0.178    0.476    0.333    0.369    0.022    0.581    0.631    0.303    0.089    0.132   -0.117    0.377    0.301   -0.089   -0.095   -0.156    0.139    0.213   -0.066   -0.374   -0.270   -0.455   -0.311   -0.139   -0.443   -0.777   -0.426   -0.396   -0.607   -0.737   -0.849 
DATE 2017:044:06:46:30 obsn 631 az 143 el 50 freq_MHz  1420.4000 Tsys 171.000 Tant 27.833 vlsr  -13.99 glat 60.851 glon 262.464 source Moon 
Fstart 1419.397 fstop 1421.403 spacing 0.009375 bw    2.400 fbw    2.000 MHz nfreq 256 nsam 5242880 npoint 214 integ   555 sigma    0.150 bsw 49
Spectrum    508 integration periods
   0.114    0.002    0.176    0.321    0.060   -0.238    0.017    0.157   -0.048   -0.011    0.021   -0.005   -0.227    0.108   -0.061   -0.359    0.304   -0.054   -0.133   -0.376    0.295    0.048   -0.017    0.237   -0.143    0.035    0.003    0.348    0.465    0.127    0.511    0.372    0.292    0.555    0.248    0.425    0.042    0.453    0.319    0.086    0.121    0.411    0.462   -0.043   -0.019    0.009   -0.034    0.231   -0.103   -0.052    0.079   -0.291   -0.080   -0.120   -0.315    0.092    0.401    0.184    0.046    0.090    0.067    0.088    0.293    0.886   -0.067    0.177    0.062    0.331    0.347    2.774   -2.110   -2.007    0.207    0.343    0.234    0.760    0.257    0.188   -0.111    0.074   -0.088   -0.176   -0.206   -0.241    0.152    0.097    0.133   -0.057   -0.307    0.122   -0.201   -0.094    0.072   -0.012   -0.046    0.006    0.306    0.146   -0.043   -0.003    0.240   -0.028   -0.062    0.017    0.044    0.204   -0.076    0.120   -0.124   -0.069    0.170   -0.013    0.087   -0.065    0.096   -0.201   -0.059   -0.287   -0.267   -0.605   -0.947   -0.360   -0.029    0.370    1.284    0.947    0.953    0.662    0.972    0.743    0.833    0.739    0.345    0.336    0.484    0.361    0.668    0.489    0.627    0.739    0.468    0.644    0.327    0.850    0.660    0.540    0.774    0.715    0.442    0.150    0.209    0.496    0.853    0.473    0.288    0.529    0.172    0.227    0.003   -0.119    0.369   -0.155   -0.092   -0.089    0.031   -0.039   -0.022    0.109    0.034    0.069    0.044   -0.045    0.082    0.233    0.048   -0.074    0.031    0.142    0.613    0.423    0.276    0.169    0.682    0.143    0.465    0.317    0.420    0.013    0.544    0.641    0.321    0.141    0.165   -0.088    0.393    0.307   -0.057   -0.078   -0.126    0.149    0.243   -0.029   -0.347   -0.243   -0.475   -0.306   -0.150   -0.462   -0.736   -0.404   -0.340   -0.584   -0.701   -0.828 
DATE 2017:044:06:46:54 obsn 632 az 136 el 50 freq_MHz  1420.4000 Tsys 171.000 Tant 28.390 vlsr  -13.99 glat 60.851 glon 262.469 source Moon 
Fstart 1419.397 fstop 1421.403 spacing 0.009375 bw    2.400 fbw    2.000 MHz nfreq 256 nsam 5242880 npoint 214 integ   566 sigma    0.148 bsw 50
Spectrum    518 integration periods
   0.126    0.008    0.181    0.331    0.062   -0.240    0.019    0.190   -0.053   -0.005   -0.001   -0.008   -0.209    0.125   -0.080   -0.363    0.285   -0.064   -0.082   -0.340    0.309   -0.004   -0.043    0.236   -0.108    0.046    0.048    0.336    0.488    0.161    0.535    0.367    0.352    0.562    0.253    0.444    0.047    0.498    0.328    0.099    0.136    0.441    0.451   -0.013    0.082    0.009   -0.028    0.237   -0.067   -0.060    0.077   -0.262   -0.059   -0.158   -0.317    0.106    0.413    0.182    0.053    0.062    0.063    0.051    0.280    0.902   -0.043    0.169    0.078    0.289    0.355    2.661   -2.148   -2.158    0.214    0.358    0.251    0.805    0.280    0.178   -0.076    0.048   -0.090   -0.136   -0.161   -0.213    0.199    0.127    0.154    0.004   -0.285    0.156   -0.163   -0.090    0.082   -0.010   -0.061   -0.012    0.314    0.200   -0.001   -0.019    0.246   -0.065   -0.074   -0.002    0.075    0.176   -0.075    0.112   -0.131   -0.111    0.155   -0.061    0.070   -0.086    0.078   -0.221   -0.078   -0.334   -0.269   -0.620   -1.016   -0.437   -0.063    0.330    1.254    0.945    0.949    0.658    0.938    0.717    0.813    0.753    0.353    0.304    0.453    0.372    0.635    0.491    0.619    0.752    0.463    0.653    0.328    0.879    0.652    0.546    0.819    0.707    0.472    0.177    0.233    0.515    0.873    0.449    0.291    0.479    0.193    0.225    0.001   -0.100    0.408   -0.172   -0.128   -0.118    0.035   -0.041   -0.047    0.115    0.009    0.093    0.023   -0.059    0.043    0.214    0.003   -0.092   -0.012    0.128    0.564    0.448    0.247    0.203    0.666    0.153    0.447    0.326    0.412    0.111    0.586    0.626    0.330    0.144    0.146   -0.066    0.414    0.335   -0.054   -0.042   -0.074    0.197    0.277   -0.021   -0.365   -0.212   -0.467   -0.436   -0.294   -0.441   -0.713   -0.399   -0.314   -0.558   -0.674   -0.850 
DATE 2017:044:06:47:18 obsn 633 az 128 el 50 freq_MHz  1420.4000 Tsys 171.000 Tant 26.822 vlsr  -13.99 glat 60.852 glon 262.474 source Moon 
Fstart 1419.397 fstop 1421.403 spacing 0.009375 bw    2.400 fbw    2.000 MHz nfreq 256 nsam 5242880 npoint 214 integ   577 sigma    0.147 bsw 51
Spectrum    528 integration periods
   0.109   -0.007    0.178    0.321    0.037   -0.273    0.020    0.179   -0.110   -0.018   -0.032   -0.035   -0.196    0.092   -0.086   -0.347    0.301   -0.086   -0.104   -0.379    0.308   -0.040   -0.051    0.185   -0.078    0.002    0.055    0.354    0.481    0.158    0.524    0.339    0.325    0.517    0.223    0.383    0.056    0.501    0.316    0.059    0.140    0.429    0.445   -0.032    0.058   -0.007   -0.022    0.197   -0.109   -0.063    0.081   -0.265   -0.111   -0.181   -0.292    0.088    0.378    0.142    0.042    0.035    0.016    0.088    0.331    0.879   -0.071    0.182    0.071    0.267    0.317    2.600   -2.019   -2.131    0.191    0.347    0.233    0.823    0.270    0.126   -0.099    0.043   -0.109   -0.196   -0.182   -0.248    0.248    0.126    0.107   -0.009   -0.267    0.148   -0.159   -0.119    0.095   -0.059   -0.081   -0.017    0.327    0.197   -0.014   -0.058    0.257   -0.029   -0.055    0.005    0.038    0.218   -0.080    0.069   -0.123   -0.082    0.193   -0.042    0.039   -0.088    0.095   -0.243   -0.087   -0.379   -0.224   -0.651   -1.016   -0.413   -0.022    0.329    1.238    0.901    0.984    0.687    0.958    0.694    0.809    0.772    0.361    0.322    0.496    0.389    0.618    0.483    0.615    0.792    0.463    0.667    0.334    0.856    0.622    0.559    0.805    0.685    0.457    0.171    0.229    0.500    0.922    0.441    0.302    0.440    0.154    0.220    0.003   -0.102    0.417   -0.169   -0.089   -0.131    0.035   -0.008   -0.067    0.144   -0.007    0.134    0.060   -0.013    0.046    0.194   -0.039   -0.094   -0.004    0.146    0.584    0.443    0.282    0.202    0.713    0.169    0.464    0.371    0.419    0.165    0.596    0.604    0.347    0.155    0.158   -0.061    0.437    0.352   -0.036   -0.017   -0.008    0.270    0.272   -0.002   -0.281   -0.099   -0.454   -0.276   -0.134   -0.398   -0.697   -0.400   -0.246   -0.477   -0.625   -0.835 
DATE 2017:044:06:47:42 obsn 634 az 136 el 50 freq_MHz  1420.4000 Tsys 171.000 Tant 26.957 vlsr  -14.00 glat 60.852 glon 262.477 source Moon 
Fstart 1419.397 fstop 1421.403 spacing 0.009375 bw    2.400 fbw    2.000 MHz nfreq 256 nsam 5242880 npoint 214 integ   588 sigma    0.146 bsw 52
Spectrum    538 integration periods
 190.867  195.498  197.896  199.835  200.105  200.354  200.422  200.939  200.300  200.006  199.549  199.820  199.374  199.434  199.136  199.381  199.849  199.168  199.117  199.382  199.439  199.404  199.480  199.532  199.993  199.677  199.736  199.731  200.934  199.862  200.021  200.089  200.044  200.177  200.197  200.180  200.083  200.469  200.150  200.019  200.160  200.745  199.983  199.799  199.664  199.827  199.302  199.148  199.084  199.110  199.573  198.365  198.309  198.114  199.123  198.537  198.236  198.269  197.560  196.932  196.658  196.412  197.189  198.851  195.981  195.787  195.814  196.727  196.744  208.088  202.130  198.660  195.066  194.571  194.662  195.578  194.855  194.475  194.664  194.649  194.769  194.664  195.062  195.260  195.948  195.460  195.920  196.290  196.842  197.450  197.253  197.173  197.421  197.311  197.232  197.186  198.391  198.438  197.350  197.722  197.919  197.796  197.875  197.986  198.053  198.953  198.169  198.336  198.071  198.792  198.284  198.091  198.201  198.588  198.851  198.739  198.976  199.402  200.923  200.592  201.952  202.796  203.379  203.541  203.472  201.902  201.159  199.776  199.472  199.698  198.760  199.456  198.408  198.432  198.495  198.160  198.043  197.636  197.464  198.356  197.277  197.188  197.080  197.313  197.161  197.267  197.210  197.332  197.905  197.510  197.426  197.476  198.615  197.751  198.255  198.375  198.267  198.049  198.201  198.091  199.305  198.224  198.274  198.309  198.429  198.682  198.397  198.439  198.344  198.926  198.436  198.378  198.321  199.175  198.187  198.231  198.223  198.062  198.151  198.124  198.224  198.177  199.143  198.323  198.227  198.204  198.444  198.162  198.268  198.394  198.770  198.449  198.491  198.674  199.621  199.439  199.392  199.466  199.241  199.589  199.778  199.586  199.788  200.787  199.722  202.688  202.791  199.899  199.986  200.127  200.338  201.042  200.962  200.132 
DATE 2017:044:06:47:55 obsn 635 az 136 el 50 freq_MHz  1420.4000 Tsys 171.000 Tant 28.638 vlsr  -14.00 glat 60.852 glon 262.482 source Moon 
Fstart 1419.397 fstop 1421.403 spacing 0.009375 bw    2.400 fbw    2.000 MHz nfreq 256 nsam 5242880 npoint 214 integ   599 sigma    0.144 bsw 52
Spectrum    548 integration periods
   0.081    0.008    0.156    0.347    0.017   -0.207    0.003    0.214   -0.151   -0.064   -0.049   -0.041   -0.234    0.063   -0.128   -0.397    0.293   -0.096   -0.105   -0.402    0.291   -0.070   -0.034    0.118   -0.095   -0.011    0.045    0.372    0.484    0.122    0.512    0.288    0.296    0.535    0.247    0.393    0.069    0.577    0.313    0.065    0.167    0.487    0.450    0.010    0.077   -0.004   -0.046    0.237   -0.126   -0.024    0.168   -0.279   -0.092   -0.160   -0.230    0.041    0.325    0.131    0.055    0.033    0.041    0.083    0.412    0.854   -0.031    0.241    0.085    0.285    0.281    2.652   -2.054   -2.074    0.135    0.359    0.206    0.802    0.288    0.155   -0.072    0.039   -0.083   -0.146   -0.147   -0.251    0.275    0.117    0.108   -0.000   -0.184    0.152   -0.172   -0.116    0.114   -0.055   -0.051    0.013    0.368    0.243   -0.027   -0.080    0.329    0.003    0.014    0.084    0.072    0.314   -0.047    0.081   -0.082   -0.018    0.213   -0.015    0.127   -0.024    0.101   -0.201   -0.024   -0.291   -0.079   -0.658   -0.918   -0.356    0.046    0.352    1.194    0.871    0.970    0.721    0.967    0.742    0.869    0.855    0.429    0.348    0.506    0.472    0.656    0.491    0.635    0.871    0.466    0.687    0.357    0.871    0.641    0.526    0.807    0.679    0.468    0.220    0.268    0.520    0.966    0.456    0.343    0.517    0.162    0.253    0.003   -0.040    0.519   -0.076   -0.048   -0.044    0.063    0.047   -0.033    0.194    0.037    0.220    0.111    0.029    0.108    0.280    0.006   -0.078    0.028    0.202    0.608    0.506    0.291    0.240    0.780    0.216    0.481    0.357    0.455    0.268    0.623    0.599    0.427    0.258    0.244    0.007    0.532    0.389    0.045    0.035    0.073    0.341    0.294    0.104   -0.198    0.037   -0.395   -0.087    0.066   -0.290   -0.627   -0.379   -0.163   -0.354   -0.479   -0.762 
DATE 2017:044:06:48:19 obsn 636 az 144 el 50 freq_MHz  1420.4000 Tsys 171.000 Tant 27.752 vlsr  -14.00 glat 60.853 glon 262.487 source Moon 
Fstart 1419.397 fstop 1421.403 spacing 0.009375 bw    2.400 fbw    2.000 MHz nfreq 256 nsam 5242880 npoint 214 integ   609 sigma    0.143 bsw 53
Spectrum    558 integration periods
   0.103    0.047    0.174    0.365    0.070   -0.135    0.011    0.244   -0.113   -0.013   -0.052    0.025   -0.184    0.110   -0.082   -0.355    0.338   -0.057   -0.120   -0.373    0.325   -0.034    0.032    0.150   -0.061    0.027    0.067    0.418    0.518    0.171    0.506    0.310    0.273    0.512    0.301    0.430    0.097    0.573    0.350    0.078    0.166    0.473    0.466    0.058    0.138   -0.015   -0.060    0.240   -0.086    0.002    0.169   -0.284   -0.077   -0.131   -0.233    0.077    0.373    0.185    0.065    0.033    0.031    0.100    0.452    0.925    0.026    0.284    0.166    0.329    0.289    2.517   -2.022   -2.240    0.180    0.388    0.255    0.802    0.291    0.186   -0.058    0.075   -0.046   -0.135   -0.097   -0.255    0.278    0.101    0.118    0.005   -0.139    0.155   -0.126   -0.090    0.143   -0.046   -0.003    0.020    0.349    0.229    0.020   -0.060    0.309    0.007    0.014    0.071    0.095    0.314   -0.018    0.110   -0.057   -0.015    0.227    0.003    0.127   -0.012    0.112   -0.197   -0.003   -0.292   -0.133   -0.709   -0.943   -0.401   -0.012    0.322    1.189    0.874    0.948    0.739    0.972    0.771    0.837    0.847    0.410    0.346    0.488    0.470    0.642    0.492    0.621    0.864    0.520    0.700    0.440    0.891    0.702    0.570    0.820    0.704    0.500    0.239    0.298    0.515    0.996    0.484    0.383    0.514    0.210    0.276    0.034   -0.011    0.513   -0.034   -0.016    0.008    0.085    0.052   -0.039    0.212    0.054    0.231    0.162    0.030    0.116    0.304    0.027   -0.065    0.036    0.182    0.626    0.511    0.302    0.261    0.795    0.260    0.488    0.394    0.452    0.251    0.620    0.633    0.404    0.262    0.274    0.043    0.501    0.399    0.051    0.082    0.067    0.356    0.306    0.104   -0.205    0.038   -0.403   -0.265   -0.082   -0.268   -0.582   -0.359   -0.143   -0.314   -0.477   -0.718 
DATE 2017:044:06:48:43 obsn 637 az 136 el 50 freq_MHz  1420.4000 Tsys 171.000 Tant 27.948 vlsr  -14.00 glat 60.853 glon 262.492 source Moon 
Fstart 1419.397 fstop 1421.403 spacing 0.009375 bw    2.400 fbw    2.000 MHz nfreq 256 nsam 5242880 npoint 214 integ   620 sigma    0.142 bsw 54
Spectrum    568 integration periods
   0.088    0.015    0.148    0.378    0.050   -0.162   -0.008    0.218   -0.130   -0.021   -0.072   -0.042   -0.237    0.084   -0.142   -0.359    0.317   -0.111   -0.145   -0.383    0.293   -0.089    0.032    0.103   -0.104    0.008    0.027    0.393    0.491    0.155    0.448    0.273    0.267    0.513    0.260    0.391    0.046    0.580    0.330    0.054    0.153    0.483    0.439    0.015    0.108   -0.037   -0.058    0.177   -0.125   -0.040    0.186   -0.287   -0.085   -0.167   -0.243    0.047    0.363    0.138    0.027    0.011    0.038    0.083    0.465    0.906   -0.045    0.242    0.161    0.296    0.256    2.447   -2.061   -2.257    0.177    0.349    0.202    0.837    0.268    0.141   -0.076    0.050   -0.071   -0.121   -0.141   -0.284    0.288    0.095    0.122   -0.007   -0.119    0.117   -0.132   -0.067    0.137   -0.047   -0.021   -0.029    0.356    0.257    0.031   -0.049    0.305   -0.014   -0.022    0.033    0.080    0.341   -0.019    0.116   -0.039   -0.010    0.210   -0.009    0.124   -0.034    0.106   -0.198   -0.000   -0.321   -0.114   -0.719   -0.999   -0.448   -0.023    0.285    1.192    0.898    0.972    0.761    0.946    0.793    0.817    0.818    0.383    0.303    0.462    0.456    0.627    0.453    0.572    0.861    0.491    0.690    0.410    0.849    0.699    0.573    0.811    0.739    0.461    0.187    0.325    0.489    1.008    0.457    0.377    0.556    0.226    0.295    0.019   -0.009    0.536   -0.048   -0.057   -0.038    0.072    0.067   -0.039    0.209    0.095    0.263    0.174    0.015    0.159    0.335    0.050   -0.065    0.049    0.138    0.620    0.499    0.308    0.267    0.817    0.277    0.457    0.415    0.453    0.246    0.636    0.628    0.428    0.287    0.267    0.043    0.531    0.398    0.076    0.063    0.110    0.385    0.326    0.161   -0.168    0.098   -0.378   -0.218   -0.035   -0.246   -0.551   -0.324   -0.106   -0.257   -0.421   -0.661 
DATE 2017:044:06:49:06 obsn 638 az 129 el 50 freq_MHz  1420.4000 Tsys 171.000 Tant 27.342 vlsr  -14.00 glat 60.853 glon 262.497 source Moon 
Fstart 1419.397 fstop 1421.403 spacing 0.009375 bw    2.400 fbw    2.000 MHz nfreq 256 nsam 5242880 npoint 214 integ   631 sigma    0.141 bsw 55
Spectrum    578 integration periods
   0.092    0.033    0.153    0.369    0.053   -0.182   -0.001    0.230   -0.087   -0.041   -0.091   -0.016   -0.220    0.057   -0.123   -0.387    0.344   -0.082   -0.114   -0.377    0.295   -0.068    0.050    0.125   -0.086    0.034    0.057    0.393    0.519    0.146    0.454    0.241    0.228    0.530    0.258    0.373    0.094    0.615    0.332    0.072    0.183    0.521    0.441    0.050    0.138   -0.040   -0.053    0.151   -0.152   -0.055    0.199   -0.257   -0.090   -0.161   -0.230    0.057    0.352    0.123    0.036   -0.007    0.040    0.074    0.475    0.939   -0.029    0.211    0.156    0.269    0.267    2.467   -1.922   -2.190    0.168    0.346    0.189    0.852    0.264    0.166   -0.027    0.060   -0.087   -0.133   -0.113   -0.250    0.330    0.112    0.112    0.010   -0.083    0.172   -0.130   -0.033    0.154   -0.037   -0.004   -0.028    0.392    0.319    0.043   -0.034    0.316    0.012    0.016    0.055    0.104    0.382   -0.026    0.106   -0.024    0.021    0.220    0.024    0.119   -0.026    0.118   -0.141    0.041   -0.332   -0.067   -0.682   -0.947   -0.360    0.042    0.301    1.165    0.903    0.957    0.746    0.960    0.835    0.830    0.833    0.376    0.325    0.483    0.452    0.649    0.440    0.586    0.886    0.480    0.682    0.420    0.858    0.729    0.602    0.835    0.734    0.465    0.181    0.350    0.517    1.052    0.471    0.392    0.542    0.230    0.311    0.037    0.005    0.550   -0.006   -0.016   -0.038    0.074    0.086   -0.065    0.203    0.074    0.273    0.180   -0.000    0.105    0.342    0.053   -0.096    0.018    0.175    0.615    0.464    0.289    0.298    0.827    0.263    0.442    0.394    0.439    0.297    0.624    0.627    0.449    0.308    0.289    0.066    0.590    0.405    0.111    0.049    0.121    0.388    0.337    0.190   -0.144    0.158   -0.343   -0.114    0.053   -0.215   -0.531   -0.304   -0.068   -0.221   -0.389   -0.653 
DATE 2017:044:06:49:38 obsn 639 az 137 el 51 freq_MHz  1420.4000 Tsys 171.000 Tant 28.830 vlsr  -14.00 glat 60.854 glon 262.504 source Moon 
Fstart 1419.397 fstop 1421.403 spacing 0.009375 bw    2.400 fbw    2.000 MHz nfreq 256 nsam 5242880 npoint 214 integ   642 sigma    0.139 bsw 56
Spectrum    588 integration periods
   0.102   -0.018    0.132    0.368    0.043   -0.167    0.007    0.234   -0.117   -0.053   -0.066   -0.022   -0.175    0.088   -0.137   -0.386    0.385   -0.079   -0.098   -0.352    0.290   -0.080    0.058    0.127   -0.082    0.022    0.058    0.376    0.506    0.160    0.452    0.220    0.208    0.544    0.235    0.358    0.066    0.613    0.367    0.089    0.183    0.563    0.454    0.089    0.179   -0.057   -0.067    0.149   -0.129   -0.051    0.210   -0.239   -0.080   -0.143   -0.219    0.057    0.359    0.165    0.050   -0.010    0.073    0.078    0.493    0.930   -0.009    0.196    0.160    0.262    0.284    2.551   -1.864   -2.172    0.178    0.369    0.209    0.856    0.250    0.139   -0.011    0.042   -0.077   -0.158   -0.164   -0.258    0.370    0.152    0.151    0.046   -0.084    0.211   -0.108   -0.009    0.190   -0.031    0.017    0.032    0.413    0.364    0.044    0.020    0.341    0.020    0.040    0.114    0.142    0.377   -0.021    0.111   -0.014    0.059    0.226    0.023    0.116   -0.026    0.146   -0.121    0.061   -0.319   -0.012   -0.625   -0.916   -0.340    0.079    0.333    1.179    0.898    0.968    0.737    0.971    0.893    0.824    0.865    0.387    0.337    0.489    0.483    0.695    0.459    0.613    0.933    0.487    0.656    0.475    0.903    0.741    0.595    0.853    0.738    0.468    0.196    0.370    0.548    1.067    0.467    0.384    0.556    0.259    0.326    0.040    0.062    0.576    0.013   -0.002   -0.008    0.096    0.124   -0.049    0.231    0.087    0.316    0.185    0.024    0.132    0.377    0.080   -0.074    0.068    0.188    0.652    0.497    0.295    0.339    0.844    0.280    0.479    0.442    0.475    0.322    0.645    0.638    0.491    0.314    0.278    0.084    0.630    0.419    0.142    0.091    0.181    0.418    0.386    0.246   -0.112    0.200   -0.291   -0.028    0.158   -0.199   -0.502   -0.263   -0.060   -0.158   -0.349   -0.569 
DATE 2017:044:06:50:02 obsn 640 az 145 el 51 freq_MHz  1420.4000 Tsys 171.000 Tant 27.208 vlsr  -14.00 glat 60.854 glon 262.509 source Moon 
Fstart 1419.397 fstop 1421.403 spacing 0.009375 bw    2.400 fbw    2.000 MHz nfreq 256 nsam 5242880 npoint 214 integ   653 sigma    0.138 bsw 57
Spectrum    598 integration periods
   0.074   -0.031    0.113    0.360    0.046   -0.172   -0.007    0.241   -0.094   -0.084   -0.079   -0.047   -0.129    0.126   -0.110   -0.364    0.422   -0.069   -0.068   -0.343    0.284   -0.053    0.057    0.156   -0.082    0.051    0.077    0.395    0.521    0.156    0.454    0.225    0.219    0.537    0.203    0.327    0.087    0.607    0.335    0.082    0.160    0.533    0.473    0.079    0.185   -0.034   -0.060    0.190   -0.080   -0.029    0.205   -0.214   -0.059   -0.123   -0.192    0.046    0.359    0.182    0.029   -0.018    0.065    0.093    0.504    0.958   -0.002    0.192    0.155    0.275    0.286    2.412   -1.907   -2.206    0.169    0.402    0.235    0.858    0.274    0.160   -0.003    0.070   -0.052   -0.158   -0.196   -0.209    0.358    0.163    0.154    0.090   -0.081    0.213   -0.080    0.018    0.206   -0.018    0.048    0.079    0.416    0.378    0.066    0.026    0.325    0.060    0.078    0.113    0.190    0.397   -0.016    0.151    0.015    0.116    0.218    0.037    0.148   -0.019    0.174   -0.112    0.058   -0.336   -0.003   -0.661   -0.913   -0.377    0.070    0.370    1.199    0.922    0.995    0.761    0.956    0.948    0.836    0.859    0.387    0.331    0.532    0.503    0.725    0.446    0.607    0.941    0.538    0.673    0.497    0.925    0.779    0.589    0.889    0.776    0.476    0.203    0.372    0.539    1.085    0.493    0.400    0.559    0.270    0.342    0.068    0.060    0.587    0.033    0.052    0.004    0.104    0.136   -0.016    0.287    0.133    0.365    0.216    0.051    0.157    0.408    0.100   -0.036    0.113    0.234    0.657    0.506    0.337    0.366    0.851    0.287    0.506    0.446    0.480    0.359    0.653    0.666    0.532    0.334    0.337    0.139    0.620    0.456    0.163    0.144    0.206    0.454    0.382    0.278   -0.097    0.190   -0.262   -0.128    0.082   -0.162   -0.461   -0.215   -0.043   -0.160   -0.336   -0.516 
DATE 2017:044:06:50:26 obsn 641 az 137 el 51 freq_MHz  1420.4000 Tsys 171.000 Tant 29.094 vlsr  -14.01 glat 60.855 glon 262.514 source Moon 
Fstart 1419.397 fstop 1421.403 spacing 0.009375 bw    2.400 fbw    2.000 MHz nfreq 256 nsam 5242880 npoint 214 integ   664 sigma    0.137 bsw 58
Spectrum    608 integration periods
   0.088   -0.002    0.112    0.371    0.042   -0.152   -0.018    0.255   -0.114   -0.042   -0.071   -0.032   -0.097    0.160   -0.087   -0.345    0.450   -0.053   -0.037   -0.313    0.259   -0.043    0.040    0.159   -0.066    0.054    0.066    0.401    0.548    0.131    0.462    0.278    0.231    0.541    0.274    0.343    0.107    0.604    0.350    0.098    0.180    0.522    0.487    0.075    0.224    0.009   -0.055    0.219   -0.061   -0.005    0.212   -0.167   -0.059   -0.110   -0.151    0.064    0.372    0.205    0.070   -0.001    0.076    0.091    0.500    0.986    0.032    0.205    0.169    0.304    0.290    2.330   -1.704   -2.227    0.217    0.421    0.242    0.875    0.287    0.166    0.017    0.097   -0.066   -0.120   -0.151   -0.167    0.344    0.189    0.204    0.118   -0.078    0.245   -0.074    0.022    0.263    0.018    0.083    0.100    0.450    0.413    0.079    0.074    0.359    0.062    0.105    0.151    0.237    0.429    0.001    0.167    0.049    0.125    0.222    0.042    0.154   -0.014    0.197   -0.106    0.068   -0.310    0.010   -0.664   -0.954   -0.409    0.065    0.372    1.245    0.928    1.012    0.803    0.991    0.928    0.846    0.891    0.393    0.370    0.510    0.505    0.734    0.443    0.659    0.960    0.553    0.679    0.526    0.923    0.763    0.630    0.902    0.815    0.470    0.260    0.405    0.534    1.094    0.499    0.452    0.592    0.318    0.398    0.081    0.083    0.601    0.048    0.091    0.031    0.122    0.156    0.019    0.317    0.149    0.401    0.245    0.115    0.183    0.443    0.120   -0.029    0.142    0.267    0.658    0.537    0.378    0.400    0.886    0.326    0.522    0.455    0.480    0.367    0.636    0.681    0.538    0.348    0.365    0.145    0.635    0.476    0.219    0.216    0.244    0.462    0.404    0.277   -0.082    0.215   -0.247   -0.213    0.002   -0.113   -0.397   -0.180    0.001   -0.132   -0.302   -0.489 
DATE 2017:044:06:50:50 obsn 642 az 129 el 51 freq_MHz  1420.4000 Tsys 171.000 Tant 27.223 vlsr  -14.01 glat 60.855 glon 262.519 source Moon 
Fstart 1419.397 fstop 1421.403 spacing 0.009375 bw    2.400 fbw    2.000 MHz nfreq 256 nsam 5242880 npoint 214 integ   675 sigma    0.136 bsw 59
Spectrum    618 integration periods
   0.075   -0.003    0.125    0.383    0.048   -0.150   -0.024    0.258   -0.114   -0.045   -0.082   -0.016   -0.081    0.152   -0.076   -0.300    0.460   -0.051   -0.014   -0.321    0.265   -0.060    0.037    0.195   -0.051    0.074    0.055    0.413    0.560    0.158    0.461    0.272    0.254    0.560    0.267    0.333    0.117    0.626    0.348    0.093    0.196    0.540    0.465    0.078    0.190    0.026   -0.015    0.226   -0.052   -0.008    0.238   -0.142   -0.045   -0.115   -0.156    0.053    0.385    0.219    0.111    0.012    0.102    0.107    0.516    0.975    0.075    0.229    0.189    0.269    0.280    2.336   -1.669   -2.182    0.216    0.428    0.254    0.882    0.294    0.164    0.031    0.129   -0.015   -0.103   -0.124   -0.161    0.357    0.194    0.217    0.114   -0.073    0.289   -0.058    0.057    0.247    0.033    0.126    0.129    0.485    0.438    0.113    0.083    0.377    0.085    0.164    0.177    0.279    0.468    0.029    0.198    0.055    0.139    0.266    0.070    0.185   -0.011    0.192   -0.087    0.094   -0.293    0.025   -0.675   -0.910   -0.361    0.101    0.400    1.282    0.954    1.034    0.832    0.992    0.925    0.851    0.895    0.421    0.397    0.511    0.528    0.751    0.458    0.649    0.987    0.577    0.695    0.533    0.970    0.759    0.647    0.932    0.829    0.503    0.278    0.417    0.532    1.139    0.520    0.457    0.632    0.315    0.429    0.091    0.102    0.590    0.048    0.126    0.057    0.155    0.179    0.034    0.323    0.170    0.413    0.267    0.143    0.177    0.505    0.153   -0.007    0.175    0.271    0.678    0.539    0.374    0.421    0.887    0.330    0.535    0.421    0.505    0.392    0.650    0.677    0.572    0.358    0.402    0.151    0.637    0.497    0.246    0.198    0.244    0.504    0.412    0.296   -0.041    0.226   -0.234   -0.171    0.045   -0.068   -0.354   -0.169    0.031   -0.096   -0.283   -0.445 
DATE 2017:044:06:51:14 obsn 643 az 137 el 51 freq_MHz  1420.4000 Tsys 171.000 Tant 28.664 vlsr  -14.01 glat 60.855 glon 262.525 source Moon 
Fstart 1419.397 fstop 1421.403 spacing 0.009375 bw    2.400 fbw    2.000 MHz nfreq 256 nsam 5242880 npoint 214 integ   686 sigma    0.135 bsw 60
Spectrum    628 integration periods
   0.088    0.012    0.158    0.403    0.102   -0.088    0.004    0.288   -0.080   -0.023   -0.060    0.006   -0.077    0.159   -0.082   -0.269    0.500   -0.025    0.048   -0.303    0.296   -0.031    0.037    0.186   -0.010    0.096    0.087    0.442    0.591    0.177    0.478    0.291    0.258    0.581    0.271    0.343    0.128    0.635    0.364    0.110    0.217    0.552    0.424    0.102    0.233    0.026    0.009    0.246   -0.018   -0.005    0.274   -0.137   -0.041   -0.092   -0.109    0.062    0.379    0.235    0.148    0.032    0.123    0.135    0.512    1.028    0.076    0.266    0.206    0.319    0.318    2.348   -1.608   -2.113    0.243    0.442    0.255    0.906    0.285    0.156    0.031    0.141    0.012   -0.068   -0.079   -0.121    0.426    0.240    0.288    0.137   -0.062    0.301   -0.070    0.069    0.262    0.049    0.152    0.145    0.516    0.504    0.149    0.110    0.371    0.137    0.171    0.171    0.305    0.471    0.049    0.238    0.090    0.169    0.309    0.077    0.169    0.017    0.211   -0.071    0.149   -0.227    0.119   -0.602   -0.857   -0.272    0.179    0.424    1.290    0.944    1.076    0.849    1.003    0.922    0.899    0.928    0.460    0.444    0.523    0.558    0.776    0.500    0.679    0.997    0.577    0.699    0.540    0.949    0.752    0.664    0.926    0.824    0.556    0.315    0.392    0.536    1.175    0.544    0.425    0.684    0.346    0.452    0.095    0.128    0.612    0.071    0.165    0.092    0.192    0.201    0.037    0.342    0.181    0.425    0.270    0.177    0.176    0.538    0.206    0.000    0.183    0.295    0.680    0.534    0.397    0.467    0.885    0.346    0.520    0.427    0.523    0.376    0.654    0.691    0.586    0.427    0.423    0.127    0.633    0.513    0.241    0.199    0.292    0.509    0.423    0.301    0.001    0.275   -0.202   -0.109    0.150   -0.060   -0.339   -0.134    0.050   -0.055   -0.225   -0.402 
DATE 2017:044:06:51:38 obsn 644 az 145 el 51 freq_MHz  1420.4000 Tsys 171.000 Tant 27.861 vlsr  -14.01 glat 60.856 glon 262.529 source Moon 
Fstart 1419.397 fstop 1421.403 spacing 0.009375 bw    2.400 fbw    2.000 MHz nfreq 256 nsam 5242880 npoint 214 integ   697 sigma    0.134 bsw 61
Spectrum    638 integration periods
   0.080   -0.000    0.147    0.419    0.098   -0.066    0.039    0.256   -0.084   -0.003   -0.037   -0.014   -0.089    0.157   -0.131   -0.262    0.502   -0.011    0.078   -0.304    0.296   -0.028    0.044    0.204    0.005    0.119    0.102    0.440    0.574    0.197    0.492    0.289    0.283    0.600    0.286    0.352    0.161    0.650    0.386    0.101    0.238    0.575    0.397    0.133    0.211    0.029    0.023    0.257   -0.016   -0.003    0.260   -0.136   -0.044   -0.075   -0.121    0.036    0.390    0.236    0.180    0.066    0.122    0.153    0.526    1.036    0.078    0.297    0.222    0.315    0.344    2.370   -1.734   -2.115    0.234    0.463    0.231    0.885    0.283    0.138    0.027    0.137    0.010   -0.041   -0.057   -0.102    0.464    0.247    0.288    0.187   -0.054    0.361   -0.027    0.096    0.266    0.081    0.158    0.161    0.524    0.532    0.184    0.141    0.349    0.169    0.206    0.206    0.331    0.503    0.091    0.250    0.111    0.199    0.319    0.103    0.191    0.038    0.202   -0.081    0.147   -0.226    0.109   -0.586   -0.848   -0.262    0.188    0.439    1.280    0.938    1.090    0.881    1.041    0.921    0.892    0.943    0.479    0.444    0.520    0.580    0.787    0.484    0.684    1.025    0.581    0.709    0.573    0.952    0.755    0.687    0.955    0.797    0.581    0.350    0.390    0.554    1.181    0.537    0.423    0.680    0.357    0.433    0.146    0.150    0.607    0.083    0.183    0.116    0.220    0.223    0.067    0.344    0.218    0.417    0.297    0.188    0.205    0.561    0.218    0.010    0.189    0.339    0.685    0.562    0.405    0.493    0.876    0.363    0.527    0.445    0.524    0.365    0.705    0.690    0.606    0.473    0.483    0.147    0.685    0.535    0.233    0.181    0.320    0.552    0.476    0.341    0.015    0.283   -0.152   -0.059    0.197   -0.018   -0.283   -0.077    0.072   -0.038   -0.188   -0.362 
DATE 2017:044:06:52:02 obsn 645 az 137 el 51 freq_MHz  1420.4000 Tsys 171.000 Tant 27.233 vlsr  -14.01 glat 60.856 glon 262.532 source Moon 
Fstart 1419.397 fstop 1421.403 spacing 0.009375 bw    2.400 fbw    2.000 MHz nfreq 256 nsam 5242880 npoint 214 integ   708 sigma    0.133 bsw 62
Spectrum    648 integration periods
 190.740  195.311  197.771  199.690  199.965  200.274  200.287  200.755  200.149  199.878  199.438  199.589  199.194  199.310  198.976  199.232  199.716  199.042  199.068  199.301  199.345  199.260  199.383  199.482  199.918  199.519  199.587  199.616  200.838  199.881  199.972  200.025  200.011  200.135  200.131  200.095  199.954  200.488  200.098  199.964  200.113  200.738  199.923  199.721  199.499  199.751  199.232  199.086  198.999  198.964  199.587  198.358  198.266  198.035  199.067  198.443  198.210  198.127  197.521  196.882  196.572  196.356  197.167  198.654  195.843  195.723  195.701  196.615  196.721  208.389  201.845  198.742  194.968  194.510  194.481  195.497  194.730  194.367  194.582  194.532  194.672  194.570  194.894  195.189  195.861  195.370  195.867  196.192  196.792  197.400  197.169  197.169  197.294  197.284  197.129  197.138  198.409  198.396  197.286  197.597  197.930  197.763  197.938  198.025  198.000  198.947  198.103  198.274  198.104  198.808  198.305  198.090  198.235  198.513  198.840  198.757  198.869  199.364  200.886  200.576  201.920  202.778  203.450  203.539  203.392  201.861  201.199  199.745  199.466  199.681  198.723  199.377  198.448  198.445  198.454  198.161  198.006  197.541  197.391  198.325  197.183  197.171  197.007  197.281  197.103  197.209  197.180  197.290  197.805  197.445  197.409  197.440  198.577  197.714  198.155  198.406  198.210  197.992  198.174  198.103  199.340  198.222  198.228  198.309  198.446  198.679  198.397  198.426  198.406  198.917  198.438  198.358  198.353  199.214  198.123  198.217  198.244  198.098  198.158  198.159  198.231  198.174  199.086  198.261  198.193  198.168  198.483  198.219  198.280  198.391  198.813  198.508  198.495  198.741  199.701  199.450  199.395  199.429  199.292  199.657  199.814  199.643  199.830  200.816  199.803  203.243  203.303  199.967  200.010  200.138  200.388  201.064  201.052  200.219 
DATE 2017:044:06:52:15 obsn 646 az 137 el 51 freq_MHz  1420.4000 Tsys 171.000 Tant 28.554 vlsr  -14.01 glat 60.856 glon 262.537 source Moon 
Fstart 1419.397 fstop 1421.403 spacing 0.009375 bw    2.400 fbw    2.000 MHz nfreq 256 nsam 5242880 npoint 214 integ   719 sigma    0.132 bsw 62
Spectrum    658 integration periods
   0.139    0.029    0.141    0.424    0.128   -0.047    0.038    0.285   -0.058   -0.021   -0.022    0.050   -0.067    0.157   -0.113   -0.190    0.509   -0.003    0.155   -0.284    0.296    0.040    0.084    0.184    0.006    0.133    0.145    0.476    0.585    0.219    0.455    0.263    0.295    0.596    0.294    0.365    0.208    0.663    0.371    0.111    0.238    0.608    0.385    0.153    0.257    0.043    0.027    0.268    0.016    0.027    0.282   -0.107   -0.052   -0.023   -0.112    0.078    0.381    0.276    0.237    0.104    0.163    0.216    0.527    1.065    0.111    0.300    0.256    0.309    0.365    2.262   -1.645   -2.159    0.242    0.459    0.260    0.875    0.274    0.199    0.092    0.187    0.034    0.016    0.027   -0.103    0.485    0.271    0.345    0.219    0.014    0.398    0.030    0.115    0.319    0.088    0.165    0.214    0.599    0.554    0.222    0.210    0.407    0.212    0.252    0.251    0.364    0.539    0.144    0.268    0.184    0.216    0.328    0.138    0.237    0.062    0.258   -0.058    0.210   -0.227    0.096   -0.617   -0.861   -0.232    0.154    0.463    1.324    0.968    1.107    0.951    1.039    0.950    0.864    0.955    0.495    0.424    0.514    0.624    0.803    0.528    0.755    1.058    0.616    0.743    0.632    1.006    0.808    0.721    0.989    0.832    0.646    0.392    0.448    0.592    1.216    0.572    0.463    0.725    0.374    0.460    0.222    0.161    0.657    0.133    0.241    0.145    0.255    0.263    0.186    0.401    0.293    0.478    0.363    0.267    0.256    0.603    0.303    0.062    0.239    0.360    0.738    0.641    0.483    0.493    0.893    0.410    0.583    0.465    0.597    0.435    0.763    0.729    0.660    0.540    0.540    0.217    0.692    0.595    0.296    0.262    0.419    0.601    0.471    0.370    0.031    0.375   -0.074   -0.182    0.121    0.089   -0.221   -0.007    0.106    0.012   -0.140   -0.291 
