DATE 2017:063:22:17:48 obsn 601 az  85 el 50 freq_MHz  1422.8910 Tsys 199.794 Tant 22.423 vlsr   39.21 glat  0.205 glon 180.117 source G180 
Fstart 1421.888 fstop 1423.894 spacing 0.009375 bw    2.400 fbw    2.000 MHz nfreq 256 nsam 5242880 npoint 214 integ     3 sigma    1.140 bsw 0
Spectrum      3 integration periods
 355.321  355.321  353.539  359.848  362.652  355.217  356.042  357.562  359.574  356.753  375.340  369.026  360.820  363.954  366.888  370.853  367.871  374.145  371.746  383.084  373.113  373.614  369.992  370.863  360.804  366.957  365.610  365.460  364.419  362.044  362.502  365.113  361.585  357.778  361.945  361.692  357.080  355.674  359.982  387.215  359.682  358.125  358.956  359.770  358.362  357.514  355.423  352.440  358.622  358.896  368.502  364.544  366.847  394.192  369.484  365.216  369.139  370.469  371.138  379.530  370.535  370.762  373.015  370.402  368.825  369.875  378.720  367.214  372.529  370.569  367.915  368.050  370.082  368.640  367.986  364.657  360.381  359.508  358.171  361.883  361.145  359.746  366.351  362.345  361.815  361.188  367.842  361.564  375.098  369.675  361.343  366.780  367.708  366.691  376.023  386.808  374.458  399.830  373.718  377.885  370.404  373.929  372.939  370.595  369.568  372.232  371.158  367.382  369.498  368.920  366.255  377.180  372.821  424.554  362.315  378.553  368.190  368.983  363.069  364.463  362.402  365.977  365.166  368.097  365.750  365.622  363.048  361.786  364.260  400.997  369.104  367.560  373.379  370.934  373.228  375.667  382.624  373.846  377.235  375.347  378.113  377.978  371.194  368.559  379.496  363.517  367.550  362.176  368.093  371.538  365.631  368.494  362.412  367.258  365.657  365.408  365.526  368.412  381.315  361.275  366.326  363.491  359.052  361.878  367.499  359.765  365.112  367.391  369.682  368.463  362.215  363.612  366.245  365.752  368.993  376.012  366.443  369.770  377.643  366.749  370.692  368.229  371.434  361.663  365.779  362.121  365.614  362.258  363.253  366.060  364.979  373.108  363.164  364.240  364.507  366.085  366.384  364.585  364.881  373.883  364.310  364.687  364.280  367.285  362.589  361.858  366.504  387.835  364.965  362.416  365.684  363.513  362.281  368.148 
